#  E (eV)   dos(E)     Int dos(E) EFermi =    0.000 eV
  -5.000  0.2703E+00  0.2703E-02
  -4.990  0.2729E+00  0.5432E-02
  -4.980  0.2754E+00  0.8186E-02
  -4.970  0.2778E+00  0.1096E-01
  -4.960  0.2801E+00  0.1377E-01
  -4.950  0.2823E+00  0.1659E-01
  -4.940  0.2844E+00  0.1943E-01
  -4.930  0.2863E+00  0.2230E-01
  -4.920  0.2882E+00  0.2518E-01
  -4.910  0.2900E+00  0.2808E-01
  -4.900  0.2918E+00  0.3100E-01
  -4.890  0.2936E+00  0.3393E-01
  -4.880  0.2955E+00  0.3689E-01
  -4.870  0.2975E+00  0.3986E-01
  -4.860  0.2996E+00  0.4286E-01
  -4.850  0.3019E+00  0.4588E-01
  -4.840  0.3042E+00  0.4892E-01
  -4.830  0.3068E+00  0.5199E-01
  -4.820  0.3094E+00  0.5508E-01
  -4.810  0.3121E+00  0.5820E-01
  -4.800  0.3150E+00  0.6135E-01
  -4.790  0.3178E+00  0.6453E-01
  -4.780  0.3207E+00  0.6774E-01
  -4.770  0.3235E+00  0.7097E-01
  -4.760  0.3262E+00  0.7423E-01
  -4.750  0.3288E+00  0.7752E-01
  -4.740  0.3313E+00  0.8084E-01
  -4.730  0.3336E+00  0.8417E-01
  -4.720  0.3358E+00  0.8753E-01
  -4.710  0.3378E+00  0.9091E-01
  -4.700  0.3396E+00  0.9430E-01
  -4.690  0.3413E+00  0.9772E-01
  -4.680  0.3429E+00  0.1011E+00
  -4.670  0.3443E+00  0.1046E+00
  -4.660  0.3457E+00  0.1080E+00
  -4.650  0.3470E+00  0.1115E+00
  -4.640  0.3483E+00  0.1150E+00
  -4.630  0.3496E+00  0.1185E+00
  -4.620  0.3510E+00  0.1220E+00
  -4.610  0.3525E+00  0.1255E+00
  -4.600  0.3541E+00  0.1291E+00
  -4.590  0.3559E+00  0.1326E+00
  -4.580  0.3578E+00  0.1362E+00
  -4.570  0.3600E+00  0.1398E+00
  -4.560  0.3623E+00  0.1434E+00
  -4.550  0.3648E+00  0.1471E+00
  -4.540  0.3676E+00  0.1508E+00
  -4.530  0.3705E+00  0.1545E+00
  -4.520  0.3736E+00  0.1582E+00
  -4.510  0.3769E+00  0.1620E+00
  -4.500  0.3802E+00  0.1658E+00
  -4.490  0.3835E+00  0.1696E+00
  -4.480  0.3868E+00  0.1735E+00
  -4.470  0.3900E+00  0.1774E+00
  -4.460  0.3931E+00  0.1813E+00
  -4.450  0.3959E+00  0.1853E+00
  -4.440  0.3984E+00  0.1892E+00
  -4.430  0.4007E+00  0.1933E+00
  -4.420  0.4025E+00  0.1973E+00
  -4.410  0.4041E+00  0.2013E+00
  -4.400  0.4053E+00  0.2054E+00
  -4.390  0.4062E+00  0.2094E+00
  -4.380  0.4068E+00  0.2135E+00
  -4.370  0.4072E+00  0.2176E+00
  -4.360  0.4075E+00  0.2216E+00
  -4.350  0.4077E+00  0.2257E+00
  -4.340  0.4081E+00  0.2298E+00
  -4.330  0.4085E+00  0.2339E+00
  -4.320  0.4092E+00  0.2380E+00
  -4.310  0.4102E+00  0.2421E+00
  -4.300  0.4115E+00  0.2462E+00
  -4.290  0.4133E+00  0.2503E+00
  -4.280  0.4155E+00  0.2545E+00
  -4.270  0.4181E+00  0.2587E+00
  -4.260  0.4211E+00  0.2629E+00
  -4.250  0.4244E+00  0.2671E+00
  -4.240  0.4281E+00  0.2714E+00
  -4.230  0.4320E+00  0.2757E+00
  -4.220  0.4360E+00  0.2801E+00
  -4.210  0.4401E+00  0.2845E+00
  -4.200  0.4442E+00  0.2889E+00
  -4.190  0.4482E+00  0.2934E+00
  -4.180  0.4519E+00  0.2979E+00
  -4.170  0.4555E+00  0.3025E+00
  -4.160  0.4587E+00  0.3071E+00
  -4.150  0.4616E+00  0.3117E+00
  -4.140  0.4641E+00  0.3163E+00
  -4.130  0.4663E+00  0.3210E+00
  -4.120  0.4682E+00  0.3257E+00
  -4.110  0.4697E+00  0.3304E+00
  -4.100  0.4710E+00  0.3351E+00
  -4.090  0.4721E+00  0.3398E+00
  -4.080  0.4729E+00  0.3445E+00
  -4.070  0.4737E+00  0.3493E+00
  -4.060  0.4744E+00  0.3540E+00
  -4.050  0.4751E+00  0.3588E+00
  -4.040  0.4758E+00  0.3635E+00
  -4.030  0.4766E+00  0.3683E+00
  -4.020  0.4775E+00  0.3731E+00
  -4.010  0.4785E+00  0.3778E+00
  -4.000  0.4796E+00  0.3826E+00
  -3.990  0.4809E+00  0.3875E+00
  -3.980  0.4823E+00  0.3923E+00
  -3.970  0.4839E+00  0.3971E+00
  -3.960  0.4857E+00  0.4020E+00
  -3.950  0.4877E+00  0.4068E+00
  -3.940  0.4899E+00  0.4117E+00
  -3.930  0.4923E+00  0.4167E+00
  -3.920  0.4949E+00  0.4216E+00
  -3.910  0.4979E+00  0.4266E+00
  -3.900  0.5010E+00  0.4316E+00
  -3.890  0.5045E+00  0.4367E+00
  -3.880  0.5082E+00  0.4417E+00
  -3.870  0.5123E+00  0.4469E+00
  -3.860  0.5165E+00  0.4520E+00
  -3.850  0.5210E+00  0.4572E+00
  -3.840  0.5257E+00  0.4625E+00
  -3.830  0.5304E+00  0.4678E+00
  -3.820  0.5352E+00  0.4731E+00
  -3.810  0.5400E+00  0.4785E+00
  -3.800  0.5447E+00  0.4840E+00
  -3.790  0.5492E+00  0.4895E+00
  -3.780  0.5534E+00  0.4950E+00
  -3.770  0.5573E+00  0.5006E+00
  -3.760  0.5607E+00  0.5062E+00
  -3.750  0.5637E+00  0.5118E+00
  -3.740  0.5662E+00  0.5175E+00
  -3.730  0.5681E+00  0.5232E+00
  -3.720  0.5696E+00  0.5289E+00
  -3.710  0.5705E+00  0.5346E+00
  -3.700  0.5710E+00  0.5403E+00
  -3.690  0.5711E+00  0.5460E+00
  -3.680  0.5709E+00  0.5517E+00
  -3.670  0.5706E+00  0.5574E+00
  -3.660  0.5702E+00  0.5631E+00
  -3.650  0.5699E+00  0.5688E+00
  -3.640  0.5697E+00  0.5745E+00
  -3.630  0.5700E+00  0.5802E+00
  -3.620  0.5706E+00  0.5859E+00
  -3.610  0.5719E+00  0.5916E+00
  -3.600  0.5738E+00  0.5974E+00
  -3.590  0.5765E+00  0.6031E+00
  -3.580  0.5799E+00  0.6089E+00
  -3.570  0.5841E+00  0.6148E+00
  -3.560  0.5890E+00  0.6207E+00
  -3.550  0.5947E+00  0.6266E+00
  -3.540  0.6009E+00  0.6326E+00
  -3.530  0.6078E+00  0.6387E+00
  -3.520  0.6150E+00  0.6449E+00
  -3.510  0.6226E+00  0.6511E+00
  -3.500  0.6303E+00  0.6574E+00
  -3.490  0.6381E+00  0.6638E+00
  -3.480  0.6458E+00  0.6702E+00
  -3.470  0.6534E+00  0.6768E+00
  -3.460  0.6608E+00  0.6834E+00
  -3.450  0.6679E+00  0.6900E+00
  -3.440  0.6747E+00  0.6968E+00
  -3.430  0.6813E+00  0.7036E+00
  -3.420  0.6875E+00  0.7105E+00
  -3.410  0.6935E+00  0.7174E+00
  -3.400  0.6993E+00  0.7244E+00
  -3.390  0.7049E+00  0.7315E+00
  -3.380  0.7105E+00  0.7386E+00
  -3.370  0.7160E+00  0.7457E+00
  -3.360  0.7216E+00  0.7529E+00
  -3.350  0.7273E+00  0.7602E+00
  -3.340  0.7331E+00  0.7675E+00
  -3.330  0.7390E+00  0.7749E+00
  -3.320  0.7451E+00  0.7824E+00
  -3.310  0.7513E+00  0.7899E+00
  -3.300  0.7575E+00  0.7975E+00
  -3.290  0.7637E+00  0.8051E+00
  -3.280  0.7697E+00  0.8128E+00
  -3.270  0.7757E+00  0.8206E+00
  -3.260  0.7813E+00  0.8284E+00
  -3.250  0.7866E+00  0.8362E+00
  -3.240  0.7914E+00  0.8442E+00
  -3.230  0.7958E+00  0.8521E+00
  -3.220  0.7996E+00  0.8601E+00
  -3.210  0.8028E+00  0.8681E+00
  -3.200  0.8055E+00  0.8762E+00
  -3.190  0.8076E+00  0.8843E+00
  -3.180  0.8093E+00  0.8924E+00
  -3.170  0.8106E+00  0.9005E+00
  -3.160  0.8117E+00  0.9086E+00
  -3.150  0.8126E+00  0.9167E+00
  -3.140  0.8135E+00  0.9248E+00
  -3.130  0.8146E+00  0.9330E+00
  -3.120  0.8158E+00  0.9411E+00
  -3.110  0.8174E+00  0.9493E+00
  -3.100  0.8193E+00  0.9575E+00
  -3.090  0.8216E+00  0.9657E+00
  -3.080  0.8242E+00  0.9740E+00
  -3.070  0.8270E+00  0.9822E+00
  -3.060  0.8300E+00  0.9905E+00
  -3.050  0.8330E+00  0.9989E+00
  -3.040  0.8358E+00  0.1007E+01
  -3.030  0.8382E+00  0.1016E+01
  -3.020  0.8401E+00  0.1024E+01
  -3.010  0.8413E+00  0.1032E+01
  -3.000  0.8417E+00  0.1041E+01
  -2.990  0.8410E+00  0.1049E+01
  -2.980  0.8393E+00  0.1058E+01
  -2.970  0.8365E+00  0.1066E+01
  -2.960  0.8326E+00  0.1074E+01
  -2.950  0.8277E+00  0.1083E+01
  -2.940  0.8219E+00  0.1091E+01
  -2.930  0.8152E+00  0.1099E+01
  -2.920  0.8080E+00  0.1107E+01
  -2.910  0.8003E+00  0.1115E+01
  -2.900  0.7923E+00  0.1123E+01
  -2.890  0.7843E+00  0.1131E+01
  -2.880  0.7764E+00  0.1139E+01
  -2.870  0.7688E+00  0.1146E+01
  -2.860  0.7616E+00  0.1154E+01
  -2.850  0.7548E+00  0.1161E+01
  -2.840  0.7487E+00  0.1169E+01
  -2.830  0.7431E+00  0.1176E+01
  -2.820  0.7382E+00  0.1184E+01
  -2.810  0.7339E+00  0.1191E+01
  -2.800  0.7301E+00  0.1198E+01
  -2.790  0.7268E+00  0.1206E+01
  -2.780  0.7238E+00  0.1213E+01
  -2.770  0.7212E+00  0.1220E+01
  -2.760  0.7188E+00  0.1227E+01
  -2.750  0.7165E+00  0.1234E+01
  -2.740  0.7142E+00  0.1242E+01
  -2.730  0.7119E+00  0.1249E+01
  -2.720  0.7095E+00  0.1256E+01
  -2.710  0.7069E+00  0.1263E+01
  -2.700  0.7042E+00  0.1270E+01
  -2.690  0.7014E+00  0.1277E+01
  -2.680  0.6985E+00  0.1284E+01
  -2.670  0.6955E+00  0.1291E+01
  -2.660  0.6925E+00  0.1298E+01
  -2.650  0.6896E+00  0.1305E+01
  -2.640  0.6868E+00  0.1312E+01
  -2.630  0.6843E+00  0.1318E+01
  -2.620  0.6821E+00  0.1325E+01
  -2.610  0.6803E+00  0.1332E+01
  -2.600  0.6789E+00  0.1339E+01
  -2.590  0.6779E+00  0.1346E+01
  -2.580  0.6773E+00  0.1352E+01
  -2.570  0.6772E+00  0.1359E+01
  -2.560  0.6774E+00  0.1366E+01
  -2.550  0.6778E+00  0.1373E+01
  -2.540  0.6785E+00  0.1379E+01
  -2.530  0.6792E+00  0.1386E+01
  -2.520  0.6799E+00  0.1393E+01
  -2.510  0.6803E+00  0.1400E+01
  -2.500  0.6805E+00  0.1407E+01
  -2.490  0.6802E+00  0.1413E+01
  -2.480  0.6793E+00  0.1420E+01
  -2.470  0.6778E+00  0.1427E+01
  -2.460  0.6755E+00  0.1434E+01
  -2.450  0.6723E+00  0.1441E+01
  -2.440  0.6682E+00  0.1447E+01
  -2.430  0.6631E+00  0.1454E+01
  -2.420  0.6570E+00  0.1460E+01
  -2.410  0.6500E+00  0.1467E+01
  -2.400  0.6420E+00  0.1473E+01
  -2.390  0.6332E+00  0.1480E+01
  -2.380  0.6236E+00  0.1486E+01
  -2.370  0.6133E+00  0.1492E+01
  -2.360  0.6024E+00  0.1498E+01
  -2.350  0.5911E+00  0.1504E+01
  -2.340  0.5796E+00  0.1510E+01
  -2.330  0.5681E+00  0.1515E+01
  -2.320  0.5566E+00  0.1521E+01
  -2.310  0.5456E+00  0.1526E+01
  -2.300  0.5350E+00  0.1532E+01
  -2.290  0.5253E+00  0.1537E+01
  -2.280  0.5164E+00  0.1542E+01
  -2.270  0.5088E+00  0.1547E+01
  -2.260  0.5024E+00  0.1552E+01
  -2.250  0.4974E+00  0.1557E+01
  -2.240  0.4940E+00  0.1562E+01
  -2.230  0.4923E+00  0.1567E+01
  -2.220  0.4921E+00  0.1572E+01
  -2.210  0.4937E+00  0.1577E+01
  -2.200  0.4967E+00  0.1582E+01
  -2.190  0.5013E+00  0.1587E+01
  -2.180  0.5072E+00  0.1592E+01
  -2.170  0.5141E+00  0.1597E+01
  -2.160  0.5219E+00  0.1602E+01
  -2.150  0.5303E+00  0.1608E+01
  -2.140  0.5390E+00  0.1613E+01
  -2.130  0.5475E+00  0.1619E+01
  -2.120  0.5557E+00  0.1624E+01
  -2.110  0.5631E+00  0.1630E+01
  -2.100  0.5695E+00  0.1636E+01
  -2.090  0.5746E+00  0.1641E+01
  -2.080  0.5780E+00  0.1647E+01
  -2.070  0.5797E+00  0.1653E+01
  -2.060  0.5795E+00  0.1659E+01
  -2.050  0.5773E+00  0.1664E+01
  -2.040  0.5731E+00  0.1670E+01
  -2.030  0.5669E+00  0.1676E+01
  -2.020  0.5588E+00  0.1681E+01
  -2.010  0.5490E+00  0.1687E+01
  -2.000  0.5377E+00  0.1692E+01
  -1.990  0.5250E+00  0.1698E+01
  -1.980  0.5112E+00  0.1703E+01
  -1.970  0.4966E+00  0.1708E+01
  -1.960  0.4814E+00  0.1712E+01
  -1.950  0.4659E+00  0.1717E+01
  -1.940  0.4502E+00  0.1722E+01
  -1.930  0.4346E+00  0.1726E+01
  -1.920  0.4192E+00  0.1730E+01
  -1.910  0.4044E+00  0.1734E+01
  -1.900  0.3902E+00  0.1738E+01
  -1.890  0.3767E+00  0.1742E+01
  -1.880  0.3642E+00  0.1745E+01
  -1.870  0.3527E+00  0.1749E+01
  -1.860  0.3423E+00  0.1752E+01
  -1.850  0.3332E+00  0.1756E+01
  -1.840  0.3254E+00  0.1759E+01
  -1.830  0.3190E+00  0.1762E+01
  -1.820  0.3140E+00  0.1765E+01
  -1.810  0.3106E+00  0.1768E+01
  -1.800  0.3087E+00  0.1772E+01
  -1.790  0.3083E+00  0.1775E+01
  -1.780  0.3095E+00  0.1778E+01
  -1.770  0.3120E+00  0.1781E+01
  -1.760  0.3159E+00  0.1784E+01
  -1.750  0.3209E+00  0.1787E+01
  -1.740  0.3270E+00  0.1790E+01
  -1.730  0.3337E+00  0.1794E+01
  -1.720  0.3410E+00  0.1797E+01
  -1.710  0.3485E+00  0.1801E+01
  -1.700  0.3559E+00  0.1804E+01
  -1.690  0.3629E+00  0.1808E+01
  -1.680  0.3692E+00  0.1812E+01
  -1.670  0.3745E+00  0.1815E+01
  -1.660  0.3785E+00  0.1819E+01
  -1.650  0.3811E+00  0.1823E+01
  -1.640  0.3820E+00  0.1827E+01
  -1.630  0.3811E+00  0.1831E+01
  -1.620  0.3783E+00  0.1834E+01
  -1.610  0.3736E+00  0.1838E+01
  -1.600  0.3670E+00  0.1842E+01
  -1.590  0.3587E+00  0.1845E+01
  -1.580  0.3487E+00  0.1849E+01
  -1.570  0.3372E+00  0.1852E+01
  -1.560  0.3245E+00  0.1855E+01
  -1.550  0.3107E+00  0.1859E+01
  -1.540  0.2961E+00  0.1861E+01
  -1.530  0.2808E+00  0.1864E+01
  -1.520  0.2651E+00  0.1867E+01
  -1.510  0.2492E+00  0.1869E+01
  -1.500  0.2333E+00  0.1872E+01
  -1.490  0.2175E+00  0.1874E+01
  -1.480  0.2019E+00  0.1876E+01
  -1.470  0.1866E+00  0.1878E+01
  -1.460  0.1718E+00  0.1880E+01
  -1.450  0.1576E+00  0.1881E+01
  -1.440  0.1439E+00  0.1883E+01
  -1.430  0.1308E+00  0.1884E+01
  -1.420  0.1184E+00  0.1885E+01
  -1.410  0.1068E+00  0.1886E+01
  -1.400  0.9589E-01  0.1887E+01
  -1.390  0.8586E-01  0.1888E+01
  -1.380  0.7671E-01  0.1889E+01
  -1.370  0.6850E-01  0.1889E+01
  -1.360  0.6127E-01  0.1890E+01
  -1.350  0.5510E-01  0.1891E+01
  -1.340  0.5002E-01  0.1891E+01
  -1.330  0.4611E-01  0.1892E+01
  -1.320  0.4343E-01  0.1892E+01
  -1.310  0.4202E-01  0.1892E+01
  -1.300  0.4195E-01  0.1893E+01
  -1.290  0.4328E-01  0.1893E+01
  -1.280  0.4603E-01  0.1894E+01
  -1.270  0.5026E-01  0.1894E+01
  -1.260  0.5600E-01  0.1895E+01
  -1.250  0.6324E-01  0.1895E+01
  -1.240  0.7198E-01  0.1896E+01
  -1.230  0.8220E-01  0.1897E+01
  -1.220  0.9383E-01  0.1898E+01
  -1.210  0.1068E+00  0.1899E+01
  -1.200  0.1210E+00  0.1900E+01
  -1.190  0.1362E+00  0.1901E+01
  -1.180  0.1523E+00  0.1903E+01
  -1.170  0.1691E+00  0.1905E+01
  -1.160  0.1863E+00  0.1907E+01
  -1.150  0.2036E+00  0.1909E+01
  -1.140  0.2208E+00  0.1911E+01
  -1.130  0.2376E+00  0.1913E+01
  -1.120  0.2536E+00  0.1916E+01
  -1.110  0.2687E+00  0.1918E+01
  -1.100  0.2824E+00  0.1921E+01
  -1.090  0.2947E+00  0.1924E+01
  -1.080  0.3052E+00  0.1927E+01
  -1.070  0.3138E+00  0.1930E+01
  -1.060  0.3205E+00  0.1934E+01
  -1.050  0.3252E+00  0.1937E+01
  -1.040  0.3278E+00  0.1940E+01
  -1.030  0.3285E+00  0.1943E+01
  -1.020  0.3273E+00  0.1947E+01
  -1.010  0.3244E+00  0.1950E+01
  -1.000  0.3199E+00  0.1953E+01
  -0.990  0.3142E+00  0.1956E+01
  -0.980  0.3074E+00  0.1959E+01
  -0.970  0.2999E+00  0.1962E+01
  -0.960  0.2918E+00  0.1965E+01
  -0.950  0.2835E+00  0.1968E+01
  -0.940  0.2751E+00  0.1971E+01
  -0.930  0.2670E+00  0.1974E+01
  -0.920  0.2594E+00  0.1976E+01
  -0.910  0.2524E+00  0.1979E+01
  -0.900  0.2463E+00  0.1981E+01
  -0.890  0.2411E+00  0.1983E+01
  -0.880  0.2372E+00  0.1986E+01
  -0.870  0.2345E+00  0.1988E+01
  -0.860  0.2333E+00  0.1991E+01
  -0.850  0.2337E+00  0.1993E+01
  -0.840  0.2359E+00  0.1995E+01
  -0.830  0.2399E+00  0.1998E+01
  -0.820  0.2459E+00  0.2000E+01
  -0.810  0.2540E+00  0.2003E+01
  -0.800  0.2644E+00  0.2005E+01
  -0.790  0.2772E+00  0.2008E+01
  -0.780  0.2925E+00  0.2011E+01
  -0.770  0.3104E+00  0.2014E+01
  -0.760  0.3310E+00  0.2017E+01
  -0.750  0.3542E+00  0.2021E+01
  -0.740  0.3800E+00  0.2025E+01
  -0.730  0.4083E+00  0.2029E+01
  -0.720  0.4390E+00  0.2033E+01
  -0.710  0.4718E+00  0.2038E+01
  -0.700  0.5063E+00  0.2043E+01
  -0.690  0.5423E+00  0.2048E+01
  -0.680  0.5792E+00  0.2054E+01
  -0.670  0.6167E+00  0.2060E+01
  -0.660  0.6543E+00  0.2067E+01
  -0.650  0.6914E+00  0.2074E+01
  -0.640  0.7276E+00  0.2081E+01
  -0.630  0.7625E+00  0.2089E+01
  -0.620  0.7958E+00  0.2097E+01
  -0.610  0.8270E+00  0.2105E+01
  -0.600  0.8562E+00  0.2114E+01
  -0.590  0.8831E+00  0.2122E+01
  -0.580  0.9078E+00  0.2131E+01
  -0.570  0.9305E+00  0.2141E+01
  -0.560  0.9515E+00  0.2150E+01
  -0.550  0.9709E+00  0.2160E+01
  -0.540  0.9891E+00  0.2170E+01
  -0.530  0.1007E+01  0.2180E+01
  -0.520  0.1024E+01  0.2190E+01
  -0.510  0.1040E+01  0.2201E+01
  -0.500  0.1058E+01  0.2211E+01
  -0.490  0.1075E+01  0.2222E+01
  -0.480  0.1093E+01  0.2233E+01
  -0.470  0.1111E+01  0.2244E+01
  -0.460  0.1129E+01  0.2255E+01
  -0.450  0.1148E+01  0.2267E+01
  -0.440  0.1166E+01  0.2278E+01
  -0.430  0.1183E+01  0.2290E+01
  -0.420  0.1199E+01  0.2302E+01
  -0.410  0.1214E+01  0.2314E+01
  -0.400  0.1227E+01  0.2327E+01
  -0.390  0.1237E+01  0.2339E+01
  -0.380  0.1245E+01  0.2351E+01
  -0.370  0.1251E+01  0.2364E+01
  -0.360  0.1253E+01  0.2376E+01
  -0.350  0.1252E+01  0.2389E+01
  -0.340  0.1249E+01  0.2401E+01
  -0.330  0.1243E+01  0.2414E+01
  -0.320  0.1235E+01  0.2426E+01
  -0.310  0.1224E+01  0.2438E+01
  -0.300  0.1212E+01  0.2451E+01
  -0.290  0.1198E+01  0.2463E+01
  -0.280  0.1183E+01  0.2474E+01
  -0.270  0.1167E+01  0.2486E+01
  -0.260  0.1151E+01  0.2498E+01
  -0.250  0.1135E+01  0.2509E+01
  -0.240  0.1118E+01  0.2520E+01
  -0.230  0.1102E+01  0.2531E+01
  -0.220  0.1087E+01  0.2542E+01
  -0.210  0.1072E+01  0.2553E+01
  -0.200  0.1057E+01  0.2563E+01
  -0.190  0.1043E+01  0.2574E+01
  -0.180  0.1029E+01  0.2584E+01
  -0.170  0.1016E+01  0.2594E+01
  -0.160  0.1003E+01  0.2604E+01
  -0.150  0.9903E+00  0.2614E+01
  -0.140  0.9774E+00  0.2624E+01
  -0.130  0.9643E+00  0.2634E+01
  -0.120  0.9509E+00  0.2643E+01
  -0.110  0.9371E+00  0.2652E+01
  -0.100  0.9228E+00  0.2662E+01
  -0.090  0.9080E+00  0.2671E+01
  -0.080  0.8926E+00  0.2680E+01
  -0.070  0.8767E+00  0.2688E+01
  -0.060  0.8605E+00  0.2697E+01
  -0.050  0.8439E+00  0.2705E+01
  -0.040  0.8273E+00  0.2714E+01
  -0.030  0.8106E+00  0.2722E+01
  -0.020  0.7942E+00  0.2730E+01
  -0.010  0.7782E+00  0.2738E+01
   0.000  0.7627E+00  0.2745E+01
   0.010  0.7479E+00  0.2753E+01
   0.020  0.7338E+00  0.2760E+01
   0.030  0.7206E+00  0.2767E+01
   0.040  0.7082E+00  0.2774E+01
   0.050  0.6965E+00  0.2781E+01
   0.060  0.6855E+00  0.2788E+01
   0.070  0.6752E+00  0.2795E+01
   0.080  0.6653E+00  0.2801E+01
   0.090  0.6557E+00  0.2808E+01
   0.100  0.6464E+00  0.2815E+01
   0.110  0.6373E+00  0.2821E+01
   0.120  0.6283E+00  0.2827E+01
   0.130  0.6193E+00  0.2833E+01
   0.140  0.6104E+00  0.2839E+01
   0.150  0.6018E+00  0.2845E+01
   0.160  0.5934E+00  0.2851E+01
   0.170  0.5855E+00  0.2857E+01
   0.180  0.5783E+00  0.2863E+01
   0.190  0.5719E+00  0.2869E+01
   0.200  0.5665E+00  0.2874E+01
   0.210  0.5624E+00  0.2880E+01
   0.220  0.5597E+00  0.2886E+01
   0.230  0.5583E+00  0.2891E+01
   0.240  0.5585E+00  0.2897E+01
   0.250  0.5601E+00  0.2902E+01
   0.260  0.5631E+00  0.2908E+01
   0.270  0.5671E+00  0.2914E+01
   0.280  0.5721E+00  0.2919E+01
   0.290  0.5777E+00  0.2925E+01
   0.300  0.5835E+00  0.2931E+01
   0.310  0.5892E+00  0.2937E+01
   0.320  0.5944E+00  0.2943E+01
   0.330  0.5988E+00  0.2949E+01
   0.340  0.6020E+00  0.2955E+01
   0.350  0.6038E+00  0.2961E+01
   0.360  0.6039E+00  0.2967E+01
   0.370  0.6023E+00  0.2973E+01
   0.380  0.5989E+00  0.2979E+01
   0.390  0.5938E+00  0.2985E+01
   0.400  0.5870E+00  0.2991E+01
   0.410  0.5789E+00  0.2997E+01
   0.420  0.5697E+00  0.3002E+01
   0.430  0.5596E+00  0.3008E+01
   0.440  0.5491E+00  0.3013E+01
   0.450  0.5386E+00  0.3019E+01
   0.460  0.5283E+00  0.3024E+01
   0.470  0.5186E+00  0.3029E+01
   0.480  0.5099E+00  0.3034E+01
   0.490  0.5023E+00  0.3039E+01
   0.500  0.4961E+00  0.3044E+01
   0.510  0.4913E+00  0.3049E+01
   0.520  0.4879E+00  0.3054E+01
   0.530  0.4860E+00  0.3059E+01
   0.540  0.4853E+00  0.3064E+01
   0.550  0.4857E+00  0.3069E+01
   0.560  0.4869E+00  0.3074E+01
   0.570  0.4886E+00  0.3078E+01
   0.580  0.4904E+00  0.3083E+01
   0.590  0.4921E+00  0.3088E+01
   0.600  0.4932E+00  0.3093E+01
   0.610  0.4936E+00  0.3098E+01
   0.620  0.4928E+00  0.3103E+01
   0.630  0.4906E+00  0.3108E+01
   0.640  0.4870E+00  0.3113E+01
   0.650  0.4817E+00  0.3118E+01
   0.660  0.4748E+00  0.3122E+01
   0.670  0.4663E+00  0.3127E+01
   0.680  0.4564E+00  0.3132E+01
   0.690  0.4454E+00  0.3136E+01
   0.700  0.4334E+00  0.3140E+01
   0.710  0.4209E+00  0.3145E+01
   0.720  0.4082E+00  0.3149E+01
   0.730  0.3958E+00  0.3153E+01
   0.740  0.3840E+00  0.3157E+01
   0.750  0.3733E+00  0.3160E+01
   0.760  0.3640E+00  0.3164E+01
   0.770  0.3565E+00  0.3167E+01
   0.780  0.3511E+00  0.3171E+01
   0.790  0.3479E+00  0.3174E+01
   0.800  0.3470E+00  0.3178E+01
   0.810  0.3485E+00  0.3181E+01
   0.820  0.3523E+00  0.3185E+01
   0.830  0.3582E+00  0.3188E+01
   0.840  0.3660E+00  0.3192E+01
   0.850  0.3753E+00  0.3196E+01
   0.860  0.3858E+00  0.3200E+01
   0.870  0.3970E+00  0.3204E+01
   0.880  0.4084E+00  0.3208E+01
   0.890  0.4196E+00  0.3212E+01
   0.900  0.4301E+00  0.3216E+01
   0.910  0.4394E+00  0.3221E+01
   0.920  0.4472E+00  0.3225E+01
   0.930  0.4532E+00  0.3230E+01
   0.940  0.4570E+00  0.3234E+01
   0.950  0.4585E+00  0.3239E+01
   0.960  0.4575E+00  0.3243E+01
   0.970  0.4542E+00  0.3248E+01
   0.980  0.4486E+00  0.3252E+01
   0.990  0.4408E+00  0.3257E+01
   1.000  0.4312E+00  0.3261E+01
   1.010  0.4201E+00  0.3265E+01
   1.020  0.4077E+00  0.3269E+01
   1.030  0.3945E+00  0.3273E+01
   1.040  0.3810E+00  0.3277E+01
   1.050  0.3676E+00  0.3281E+01
   1.060  0.3545E+00  0.3284E+01
   1.070  0.3423E+00  0.3288E+01
   1.080  0.3312E+00  0.3291E+01
   1.090  0.3216E+00  0.3294E+01
   1.100  0.3136E+00  0.3298E+01
   1.110  0.3074E+00  0.3301E+01
   1.120  0.3032E+00  0.3304E+01
   1.130  0.3008E+00  0.3307E+01
   1.140  0.3004E+00  0.3310E+01
   1.150  0.3018E+00  0.3313E+01
   1.160  0.3048E+00  0.3316E+01
   1.170  0.3093E+00  0.3319E+01
   1.180  0.3149E+00  0.3322E+01
   1.190  0.3214E+00  0.3325E+01
   1.200  0.3285E+00  0.3328E+01
   1.210  0.3357E+00  0.3332E+01
   1.220  0.3428E+00  0.3335E+01
   1.230  0.3493E+00  0.3339E+01
   1.240  0.3550E+00  0.3342E+01
   1.250  0.3595E+00  0.3346E+01
   1.260  0.3626E+00  0.3350E+01
   1.270  0.3641E+00  0.3353E+01
   1.280  0.3638E+00  0.3357E+01
   1.290  0.3615E+00  0.3360E+01
   1.300  0.3574E+00  0.3364E+01
   1.310  0.3515E+00  0.3367E+01
   1.320  0.3439E+00  0.3371E+01
   1.330  0.3349E+00  0.3374E+01
   1.340  0.3247E+00  0.3378E+01
   1.350  0.3136E+00  0.3381E+01
   1.360  0.3020E+00  0.3384E+01
   1.370  0.2902E+00  0.3387E+01
   1.380  0.2787E+00  0.3389E+01
   1.390  0.2679E+00  0.3392E+01
   1.400  0.2579E+00  0.3395E+01
   1.410  0.2493E+00  0.3397E+01
   1.420  0.2422E+00  0.3400E+01
   1.430  0.2368E+00  0.3402E+01
   1.440  0.2333E+00  0.3404E+01
   1.450  0.2318E+00  0.3407E+01
   1.460  0.2322E+00  0.3409E+01
   1.470  0.2346E+00  0.3411E+01
   1.480  0.2388E+00  0.3414E+01
   1.490  0.2446E+00  0.3416E+01
   1.500  0.2519E+00  0.3419E+01
   1.510  0.2604E+00  0.3421E+01
   1.520  0.2698E+00  0.3424E+01
   1.530  0.2797E+00  0.3427E+01
   1.540  0.2899E+00  0.3430E+01
   1.550  0.2999E+00  0.3433E+01
   1.560  0.3095E+00  0.3436E+01
   1.570  0.3183E+00  0.3439E+01
   1.580  0.3261E+00  0.3442E+01
   1.590  0.3324E+00  0.3445E+01
   1.600  0.3372E+00  0.3449E+01
   1.610  0.3402E+00  0.3452E+01
   1.620  0.3412E+00  0.3456E+01
   1.630  0.3403E+00  0.3459E+01
   1.640  0.3374E+00  0.3462E+01
   1.650  0.3326E+00  0.3466E+01
   1.660  0.3261E+00  0.3469E+01
   1.670  0.3179E+00  0.3472E+01
   1.680  0.3084E+00  0.3475E+01
   1.690  0.2978E+00  0.3478E+01
   1.700  0.2865E+00  0.3481E+01
   1.710  0.2748E+00  0.3484E+01
   1.720  0.2631E+00  0.3486E+01
   1.730  0.2518E+00  0.3489E+01
   1.740  0.2411E+00  0.3491E+01
   1.750  0.2316E+00  0.3494E+01
   1.760  0.2234E+00  0.3496E+01
   1.770  0.2169E+00  0.3498E+01
   1.780  0.2123E+00  0.3500E+01
   1.790  0.2098E+00  0.3502E+01
   1.800  0.2097E+00  0.3504E+01
   1.810  0.2119E+00  0.3507E+01
   1.820  0.2167E+00  0.3509E+01
   1.830  0.2240E+00  0.3511E+01
   1.840  0.2338E+00  0.3513E+01
   1.850  0.2462E+00  0.3516E+01
   1.860  0.2609E+00  0.3518E+01
   1.870  0.2779E+00  0.3521E+01
   1.880  0.2969E+00  0.3524E+01
   1.890  0.3179E+00  0.3527E+01
   1.900  0.3405E+00  0.3531E+01
   1.910  0.3644E+00  0.3534E+01
   1.920  0.3895E+00  0.3538E+01
   1.930  0.4153E+00  0.3542E+01
   1.940  0.4416E+00  0.3547E+01
   1.950  0.4681E+00  0.3551E+01
   1.960  0.4945E+00  0.3556E+01
   1.970  0.5206E+00  0.3562E+01
   1.980  0.5460E+00  0.3567E+01
   1.990  0.5708E+00  0.3573E+01
   2.000  0.5946E+00  0.3579E+01
   2.010  0.6176E+00  0.3585E+01
   2.020  0.6397E+00  0.3591E+01
   2.030  0.6609E+00  0.3598E+01
   2.040  0.6813E+00  0.3605E+01
   2.050  0.7011E+00  0.3612E+01
   2.060  0.7204E+00  0.3619E+01
   2.070  0.7394E+00  0.3626E+01
   2.080  0.7582E+00  0.3634E+01
   2.090  0.7770E+00  0.3642E+01
   2.100  0.7958E+00  0.3650E+01
   2.110  0.8149E+00  0.3658E+01
   2.120  0.8341E+00  0.3666E+01
   2.130  0.8536E+00  0.3675E+01
   2.140  0.8732E+00  0.3683E+01
   2.150  0.8929E+00  0.3692E+01
   2.160  0.9127E+00  0.3701E+01
   2.170  0.9323E+00  0.3711E+01
   2.180  0.9517E+00  0.3720E+01
   2.190  0.9708E+00  0.3730E+01
   2.200  0.9894E+00  0.3740E+01
   2.210  0.1007E+01  0.3750E+01
   2.220  0.1025E+01  0.3760E+01
   2.230  0.1041E+01  0.3771E+01
   2.240  0.1057E+01  0.3781E+01
   2.250  0.1072E+01  0.3792E+01
   2.260  0.1086E+01  0.3803E+01
   2.270  0.1099E+01  0.3814E+01
   2.280  0.1112E+01  0.3825E+01
   2.290  0.1123E+01  0.3836E+01
   2.300  0.1133E+01  0.3847E+01
   2.310  0.1142E+01  0.3859E+01
   2.320  0.1149E+01  0.3870E+01
   2.330  0.1155E+01  0.3882E+01
   2.340  0.1160E+01  0.3894E+01
   2.350  0.1163E+01  0.3905E+01
   2.360  0.1165E+01  0.3917E+01
   2.370  0.1165E+01  0.3928E+01
   2.380  0.1162E+01  0.3940E+01
   2.390  0.1158E+01  0.3952E+01
   2.400  0.1153E+01  0.3963E+01
   2.410  0.1145E+01  0.3975E+01
   2.420  0.1136E+01  0.3986E+01
   2.430  0.1125E+01  0.3997E+01
   2.440  0.1112E+01  0.4008E+01
   2.450  0.1099E+01  0.4019E+01
   2.460  0.1085E+01  0.4030E+01
   2.470  0.1070E+01  0.4041E+01
   2.480  0.1055E+01  0.4051E+01
   2.490  0.1040E+01  0.4062E+01
   2.500  0.1025E+01  0.4072E+01
   2.510  0.1011E+01  0.4082E+01
   2.520  0.9977E+00  0.4092E+01
   2.530  0.9858E+00  0.4102E+01
   2.540  0.9754E+00  0.4112E+01
   2.550  0.9667E+00  0.4121E+01
   2.560  0.9599E+00  0.4131E+01
   2.570  0.9551E+00  0.4141E+01
   2.580  0.9525E+00  0.4150E+01
   2.590  0.9520E+00  0.4160E+01
   2.600  0.9538E+00  0.4169E+01
   2.610  0.9576E+00  0.4179E+01
   2.620  0.9634E+00  0.4188E+01
   2.630  0.9709E+00  0.4198E+01
   2.640  0.9800E+00  0.4208E+01
   2.650  0.9903E+00  0.4218E+01
   2.660  0.1001E+01  0.4228E+01
   2.670  0.1013E+01  0.4238E+01
   2.680  0.1025E+01  0.4248E+01
   2.690  0.1036E+01  0.4259E+01
   2.700  0.1047E+01  0.4269E+01
   2.710  0.1056E+01  0.4280E+01
   2.720  0.1064E+01  0.4290E+01
   2.730  0.1070E+01  0.4301E+01
   2.740  0.1075E+01  0.4312E+01
   2.750  0.1077E+01  0.4322E+01
   2.760  0.1078E+01  0.4333E+01
   2.770  0.1077E+01  0.4344E+01
   2.780  0.1074E+01  0.4355E+01
   2.790  0.1069E+01  0.4365E+01
   2.800  0.1063E+01  0.4376E+01
   2.810  0.1057E+01  0.4387E+01
   2.820  0.1049E+01  0.4397E+01
   2.830  0.1042E+01  0.4408E+01
   2.840  0.1034E+01  0.4418E+01
   2.850  0.1027E+01  0.4428E+01
   2.860  0.1020E+01  0.4438E+01
   2.870  0.1013E+01  0.4449E+01
   2.880  0.1008E+01  0.4459E+01
   2.890  0.1003E+01  0.4469E+01
   2.900  0.9989E+00  0.4479E+01
   2.910  0.9957E+00  0.4489E+01
   2.920  0.9933E+00  0.4499E+01
   2.930  0.9918E+00  0.4508E+01
   2.940  0.9911E+00  0.4518E+01
   2.950  0.9912E+00  0.4528E+01
   2.960  0.9923E+00  0.4538E+01
   2.970  0.9943E+00  0.4548E+01
   2.980  0.9974E+00  0.4558E+01
   2.990  0.1002E+01  0.4568E+01
   3.000  0.1007E+01  0.4578E+01
   3.010  0.1013E+01  0.4588E+01
   3.020  0.1021E+01  0.4599E+01
   3.030  0.1030E+01  0.4609E+01
   3.040  0.1040E+01  0.4619E+01
   3.050  0.1052E+01  0.4630E+01
   3.060  0.1064E+01  0.4640E+01
   3.070  0.1076E+01  0.4651E+01
   3.080  0.1089E+01  0.4662E+01
   3.090  0.1102E+01  0.4673E+01
   3.100  0.1115E+01  0.4684E+01
   3.110  0.1127E+01  0.4695E+01
   3.120  0.1138E+01  0.4707E+01
   3.130  0.1147E+01  0.4718E+01
   3.140  0.1155E+01  0.4730E+01
   3.150  0.1161E+01  0.4741E+01
   3.160  0.1165E+01  0.4753E+01
   3.170  0.1167E+01  0.4765E+01
   3.180  0.1168E+01  0.4776E+01
   3.190  0.1167E+01  0.4788E+01
   3.200  0.1164E+01  0.4800E+01
   3.210  0.1160E+01  0.4811E+01
   3.220  0.1156E+01  0.4823E+01
   3.230  0.1151E+01  0.4834E+01
   3.240  0.1146E+01  0.4846E+01
   3.250  0.1142E+01  0.4857E+01
   3.260  0.1139E+01  0.4869E+01
   3.270  0.1136E+01  0.4880E+01
   3.280  0.1136E+01  0.4891E+01
   3.290  0.1137E+01  0.4903E+01
   3.300  0.1139E+01  0.4914E+01
   3.310  0.1144E+01  0.4926E+01
   3.320  0.1151E+01  0.4937E+01
   3.330  0.1159E+01  0.4949E+01
   3.340  0.1169E+01  0.4960E+01
   3.350  0.1181E+01  0.4972E+01
   3.360  0.1194E+01  0.4984E+01
   3.370  0.1209E+01  0.4996E+01
   3.380  0.1224E+01  0.5009E+01
   3.390  0.1240E+01  0.5021E+01
   3.400  0.1257E+01  0.5034E+01
   3.410  0.1274E+01  0.5046E+01
   3.420  0.1291E+01  0.5059E+01
   3.430  0.1308E+01  0.5072E+01
   3.440  0.1325E+01  0.5085E+01
   3.450  0.1341E+01  0.5099E+01
   3.460  0.1357E+01  0.5112E+01
   3.470  0.1373E+01  0.5126E+01
   3.480  0.1387E+01  0.5140E+01
   3.490  0.1401E+01  0.5154E+01
   3.500  0.1414E+01  0.5168E+01
   3.510  0.1426E+01  0.5182E+01
   3.520  0.1437E+01  0.5197E+01
   3.530  0.1447E+01  0.5211E+01
   3.540  0.1455E+01  0.5226E+01
   3.550  0.1462E+01  0.5241E+01
   3.560  0.1468E+01  0.5255E+01
   3.570  0.1473E+01  0.5270E+01
   3.580  0.1476E+01  0.5285E+01
   3.590  0.1478E+01  0.5299E+01
   3.600  0.1479E+01  0.5314E+01
   3.610  0.1479E+01  0.5329E+01
   3.620  0.1478E+01  0.5344E+01
   3.630  0.1476E+01  0.5359E+01
   3.640  0.1473E+01  0.5373E+01
   3.650  0.1470E+01  0.5388E+01
   3.660  0.1466E+01  0.5403E+01
   3.670  0.1462E+01  0.5417E+01
   3.680  0.1458E+01  0.5432E+01
   3.690  0.1454E+01  0.5446E+01
   3.700  0.1449E+01  0.5461E+01
   3.710  0.1445E+01  0.5475E+01
   3.720  0.1441E+01  0.5490E+01
   3.730  0.1438E+01  0.5504E+01
   3.740  0.1434E+01  0.5518E+01
   3.750  0.1431E+01  0.5533E+01
   3.760  0.1429E+01  0.5547E+01
   3.770  0.1427E+01  0.5561E+01
   3.780  0.1425E+01  0.5576E+01
   3.790  0.1424E+01  0.5590E+01
   3.800  0.1423E+01  0.5604E+01
   3.810  0.1423E+01  0.5618E+01
   3.820  0.1423E+01  0.5633E+01
   3.830  0.1423E+01  0.5647E+01
   3.840  0.1424E+01  0.5661E+01
   3.850  0.1425E+01  0.5675E+01
   3.860  0.1426E+01  0.5690E+01
   3.870  0.1427E+01  0.5704E+01
   3.880  0.1428E+01  0.5718E+01
   3.890  0.1430E+01  0.5732E+01
   3.900  0.1431E+01  0.5747E+01
   3.910  0.1431E+01  0.5761E+01
   3.920  0.1432E+01  0.5775E+01
   3.930  0.1432E+01  0.5790E+01
   3.940  0.1433E+01  0.5804E+01
   3.950  0.1432E+01  0.5818E+01
   3.960  0.1431E+01  0.5833E+01
   3.970  0.1430E+01  0.5847E+01
   3.980  0.1428E+01  0.5861E+01
   3.990  0.1426E+01  0.5875E+01
   4.000  0.1423E+01  0.5890E+01
   4.010  0.1420E+01  0.5904E+01
   4.020  0.1415E+01  0.5918E+01
   4.030  0.1410E+01  0.5932E+01
   4.040  0.1405E+01  0.5946E+01
   4.050  0.1399E+01  0.5960E+01
   4.060  0.1392E+01  0.5974E+01
   4.070  0.1384E+01  0.5988E+01
   4.080  0.1376E+01  0.6002E+01
   4.090  0.1368E+01  0.6015E+01
   4.100  0.1359E+01  0.6029E+01
   4.110  0.1351E+01  0.6042E+01
   4.120  0.1342E+01  0.6056E+01
   4.130  0.1335E+01  0.6069E+01
   4.140  0.1327E+01  0.6083E+01
   4.150  0.1321E+01  0.6096E+01
   4.160  0.1315E+01  0.6109E+01
   4.170  0.1311E+01  0.6122E+01
   4.180  0.1308E+01  0.6135E+01
   4.190  0.1306E+01  0.6148E+01
   4.200  0.1306E+01  0.6161E+01
   4.210  0.1306E+01  0.6174E+01
   4.220  0.1308E+01  0.6187E+01
   4.230  0.1311E+01  0.6200E+01
   4.240  0.1314E+01  0.6214E+01
   4.250  0.1318E+01  0.6227E+01
   4.260  0.1322E+01  0.6240E+01
   4.270  0.1326E+01  0.6253E+01
   4.280  0.1329E+01  0.6267E+01
   4.290  0.1332E+01  0.6280E+01
   4.300  0.1333E+01  0.6293E+01
   4.310  0.1334E+01  0.6307E+01
   4.320  0.1333E+01  0.6320E+01
   4.330  0.1331E+01  0.6333E+01
   4.340  0.1327E+01  0.6346E+01
   4.350  0.1323E+01  0.6360E+01
   4.360  0.1317E+01  0.6373E+01
   4.370  0.1311E+01  0.6386E+01
   4.380  0.1304E+01  0.6399E+01
   4.390  0.1297E+01  0.6412E+01
   4.400  0.1291E+01  0.6425E+01
   4.410  0.1284E+01  0.6438E+01
   4.420  0.1278E+01  0.6450E+01
   4.430  0.1273E+01  0.6463E+01
   4.440  0.1268E+01  0.6476E+01
   4.450  0.1265E+01  0.6489E+01
   4.460  0.1263E+01  0.6501E+01
   4.470  0.1261E+01  0.6514E+01
   4.480  0.1260E+01  0.6526E+01
   4.490  0.1260E+01  0.6539E+01
   4.500  0.1260E+01  0.6552E+01
   4.510  0.1261E+01  0.6564E+01
   4.520  0.1261E+01  0.6577E+01
   4.530  0.1261E+01  0.6589E+01
   4.540  0.1261E+01  0.6602E+01
   4.550  0.1260E+01  0.6615E+01
   4.560  0.1258E+01  0.6627E+01
   4.570  0.1256E+01  0.6640E+01
   4.580  0.1252E+01  0.6652E+01
   4.590  0.1248E+01  0.6665E+01
   4.600  0.1243E+01  0.6677E+01
   4.610  0.1237E+01  0.6690E+01
   4.620  0.1231E+01  0.6702E+01
   4.630  0.1224E+01  0.6714E+01
   4.640  0.1217E+01  0.6726E+01
   4.650  0.1211E+01  0.6738E+01
   4.660  0.1204E+01  0.6750E+01
   4.670  0.1199E+01  0.6762E+01
   4.680  0.1193E+01  0.6774E+01
   4.690  0.1189E+01  0.6786E+01
   4.700  0.1186E+01  0.6798E+01
   4.710  0.1184E+01  0.6810E+01
   4.720  0.1182E+01  0.6822E+01
   4.730  0.1182E+01  0.6834E+01
   4.740  0.1183E+01  0.6845E+01
   4.750  0.1185E+01  0.6857E+01
   4.760  0.1187E+01  0.6869E+01
   4.770  0.1190E+01  0.6881E+01
   4.780  0.1194E+01  0.6893E+01
   4.790  0.1198E+01  0.6905E+01
   4.800  0.1201E+01  0.6917E+01
   4.810  0.1205E+01  0.6929E+01
   4.820  0.1208E+01  0.6941E+01
   4.830  0.1211E+01  0.6953E+01
   4.840  0.1212E+01  0.6965E+01
   4.850  0.1213E+01  0.6977E+01
   4.860  0.1212E+01  0.6990E+01
   4.870  0.1210E+01  0.7002E+01
   4.880  0.1207E+01  0.7014E+01
   4.890  0.1202E+01  0.7026E+01
   4.900  0.1196E+01  0.7038E+01
   4.910  0.1188E+01  0.7050E+01
   4.920  0.1179E+01  0.7061E+01
   4.930  0.1169E+01  0.7073E+01
   4.940  0.1159E+01  0.7085E+01
   4.950  0.1148E+01  0.7096E+01
   4.960  0.1136E+01  0.7108E+01
   4.970  0.1125E+01  0.7119E+01
   4.980  0.1115E+01  0.7130E+01
   4.990  0.1105E+01  0.7141E+01
   5.000  0.1097E+01  0.7152E+01
   5.010  0.1089E+01  0.7163E+01
   5.020  0.1084E+01  0.7174E+01
   5.030  0.1079E+01  0.7184E+01
   5.040  0.1077E+01  0.7195E+01
   5.050  0.1076E+01  0.7206E+01
   5.060  0.1076E+01  0.7217E+01
   5.070  0.1077E+01  0.7228E+01
   5.080  0.1080E+01  0.7238E+01
   5.090  0.1082E+01  0.7249E+01
   5.100  0.1085E+01  0.7260E+01
   5.110  0.1088E+01  0.7271E+01
   5.120  0.1090E+01  0.7282E+01
   5.130  0.1091E+01  0.7293E+01
   5.140  0.1090E+01  0.7304E+01
   5.150  0.1088E+01  0.7314E+01
   5.160  0.1084E+01  0.7325E+01
   5.170  0.1077E+01  0.7336E+01
   5.180  0.1068E+01  0.7347E+01
   5.190  0.1057E+01  0.7357E+01
   5.200  0.1043E+01  0.7368E+01
   5.210  0.1027E+01  0.7378E+01
   5.220  0.1010E+01  0.7388E+01
   5.230  0.9903E+00  0.7398E+01
   5.240  0.9697E+00  0.7408E+01
   5.250  0.9480E+00  0.7417E+01
   5.260  0.9258E+00  0.7426E+01
   5.270  0.9033E+00  0.7436E+01
   5.280  0.8809E+00  0.7444E+01
   5.290  0.8590E+00  0.7453E+01
   5.300  0.8379E+00  0.7461E+01
   5.310  0.8178E+00  0.7469E+01
   5.320  0.7989E+00  0.7477E+01
   5.330  0.7813E+00  0.7485E+01
   5.340  0.7652E+00  0.7493E+01
   5.350  0.7505E+00  0.7500E+01
   5.360  0.7372E+00  0.7508E+01
   5.370  0.7252E+00  0.7515E+01
   5.380  0.7144E+00  0.7522E+01
   5.390  0.7046E+00  0.7529E+01
   5.400  0.6956E+00  0.7536E+01
   5.410  0.6874E+00  0.7543E+01
   5.420  0.6795E+00  0.7550E+01
   5.430  0.6720E+00  0.7557E+01
   5.440  0.6646E+00  0.7563E+01
   5.450  0.6572E+00  0.7570E+01
   5.460  0.6496E+00  0.7576E+01
   5.470  0.6419E+00  0.7583E+01
   5.480  0.6339E+00  0.7589E+01
   5.490  0.6256E+00  0.7595E+01
   5.500  0.6171E+00  0.7601E+01
   5.510  0.6084E+00  0.7608E+01
   5.520  0.5996E+00  0.7614E+01
   5.530  0.5907E+00  0.7619E+01
   5.540  0.5818E+00  0.7625E+01
   5.550  0.5731E+00  0.7631E+01
   5.560  0.5645E+00  0.7637E+01
   5.570  0.5562E+00  0.7642E+01
   5.580  0.5482E+00  0.7648E+01
   5.590  0.5405E+00  0.7653E+01
   5.600  0.5332E+00  0.7658E+01
   5.610  0.5262E+00  0.7664E+01
   5.620  0.5194E+00  0.7669E+01
   5.630  0.5129E+00  0.7674E+01
   5.640  0.5065E+00  0.7679E+01
   5.650  0.5001E+00  0.7684E+01
   5.660  0.4937E+00  0.7689E+01
   5.670  0.4872E+00  0.7694E+01
   5.680  0.4805E+00  0.7699E+01
   5.690  0.4735E+00  0.7703E+01
   5.700  0.4663E+00  0.7708E+01
   5.710  0.4587E+00  0.7713E+01
   5.720  0.4509E+00  0.7717E+01
   5.730  0.4428E+00  0.7722E+01
   5.740  0.4345E+00  0.7726E+01
   5.750  0.4261E+00  0.7730E+01
   5.760  0.4177E+00  0.7734E+01
   5.770  0.4093E+00  0.7739E+01
   5.780  0.4012E+00  0.7743E+01
   5.790  0.3933E+00  0.7746E+01
   5.800  0.3858E+00  0.7750E+01
   5.810  0.3788E+00  0.7754E+01
   5.820  0.3724E+00  0.7758E+01
   5.830  0.3665E+00  0.7761E+01
   5.840  0.3613E+00  0.7765E+01
   5.850  0.3566E+00  0.7769E+01
   5.860  0.3525E+00  0.7772E+01
   5.870  0.3488E+00  0.7776E+01
   5.880  0.3456E+00  0.7779E+01
   5.890  0.3426E+00  0.7783E+01
   5.900  0.3398E+00  0.7786E+01
   5.910  0.3371E+00  0.7789E+01
   5.920  0.3343E+00  0.7793E+01
   5.930  0.3313E+00  0.7796E+01
   5.940  0.3280E+00  0.7799E+01
   5.950  0.3243E+00  0.7803E+01
   5.960  0.3201E+00  0.7806E+01
   5.970  0.3154E+00  0.7809E+01
   5.980  0.3103E+00  0.7812E+01
   5.990  0.3047E+00  0.7815E+01
   6.000  0.2986E+00  0.7818E+01
   6.010  0.2921E+00  0.7821E+01
   6.020  0.2854E+00  0.7824E+01
   6.030  0.2785E+00  0.7827E+01
   6.040  0.2714E+00  0.7829E+01
   6.050  0.2644E+00  0.7832E+01
   6.060  0.2574E+00  0.7834E+01
   6.070  0.2506E+00  0.7837E+01
   6.080  0.2441E+00  0.7839E+01
   6.090  0.2378E+00  0.7842E+01
   6.100  0.2318E+00  0.7844E+01
   6.110  0.2261E+00  0.7846E+01
   6.120  0.2207E+00  0.7849E+01
   6.130  0.2156E+00  0.7851E+01
   6.140  0.2108E+00  0.7853E+01
   6.150  0.2061E+00  0.7855E+01
   6.160  0.2015E+00  0.7857E+01
   6.170  0.1970E+00  0.7859E+01
   6.180  0.1925E+00  0.7861E+01
   6.190  0.1880E+00  0.7863E+01
   6.200  0.1833E+00  0.7865E+01
   6.210  0.1785E+00  0.7866E+01
   6.220  0.1735E+00  0.7868E+01
   6.230  0.1683E+00  0.7870E+01
   6.240  0.1628E+00  0.7871E+01
   6.250  0.1571E+00  0.7873E+01
   6.260  0.1512E+00  0.7874E+01
   6.270  0.1450E+00  0.7876E+01
   6.280  0.1387E+00  0.7877E+01
   6.290  0.1321E+00  0.7879E+01
   6.300  0.1254E+00  0.7880E+01
   6.310  0.1187E+00  0.7881E+01
   6.320  0.1118E+00  0.7882E+01
   6.330  0.1049E+00  0.7883E+01
   6.340  0.9803E-01  0.7884E+01
   6.350  0.9120E-01  0.7885E+01
   6.360  0.8447E-01  0.7886E+01
   6.370  0.7786E-01  0.7887E+01
   6.380  0.7142E-01  0.7887E+01
   6.390  0.6517E-01  0.7888E+01
   6.400  0.5916E-01  0.7889E+01
   6.410  0.5341E-01  0.7889E+01
   6.420  0.4794E-01  0.7890E+01
   6.430  0.4278E-01  0.7890E+01
   6.440  0.3793E-01  0.7891E+01
   6.450  0.3343E-01  0.7891E+01
   6.460  0.2926E-01  0.7891E+01
   6.470  0.2543E-01  0.7891E+01
   6.480  0.2195E-01  0.7892E+01
   6.490  0.1881E-01  0.7892E+01
   6.500  0.1600E-01  0.7892E+01
   6.510  0.1350E-01  0.7892E+01
   6.520  0.1131E-01  0.7892E+01
   6.530  0.9392E-02  0.7892E+01
   6.540  0.7737E-02  0.7892E+01
   6.550  0.6320E-02  0.7892E+01
   6.560  0.5118E-02  0.7893E+01
   6.570  0.4109E-02  0.7893E+01
   6.580  0.3270E-02  0.7893E+01
   6.590  0.2579E-02  0.7893E+01
   6.600  0.2015E-02  0.7893E+01
   6.610  0.1561E-02  0.7893E+01
   6.620  0.1198E-02  0.7893E+01
   6.630  0.9118E-03  0.7893E+01
   6.640  0.6885E-03  0.7893E+01
   6.650  0.5167E-03  0.7893E+01
   6.660  0.3868E-03  0.7893E+01
   6.670  0.2909E-03  0.7893E+01
   6.680  0.2229E-03  0.7893E+01
   6.690  0.1780E-03  0.7893E+01
   6.700  0.1532E-03  0.7893E+01
   6.710  0.1468E-03  0.7893E+01
   6.720  0.1585E-03  0.7893E+01
   6.730  0.1897E-03  0.7893E+01
   6.740  0.2431E-03  0.7893E+01
   6.750  0.3232E-03  0.7893E+01
   6.760  0.4361E-03  0.7893E+01
   6.770  0.5899E-03  0.7893E+01
   6.780  0.7950E-03  0.7893E+01
   6.790  0.1064E-02  0.7893E+01
   6.800  0.1411E-02  0.7893E+01
   6.810  0.1854E-02  0.7893E+01
   6.820  0.2413E-02  0.7893E+01
   6.830  0.3109E-02  0.7893E+01
   6.840  0.3966E-02  0.7893E+01
   6.850  0.5010E-02  0.7893E+01
   6.860  0.6267E-02  0.7893E+01
   6.870  0.7763E-02  0.7893E+01
   6.880  0.9525E-02  0.7893E+01
   6.890  0.1158E-01  0.7893E+01
   6.900  0.1394E-01  0.7893E+01
   6.910  0.1663E-01  0.7894E+01
   6.920  0.1966E-01  0.7894E+01
   6.930  0.2304E-01  0.7894E+01
   6.940  0.2677E-01  0.7894E+01
   6.950  0.3085E-01  0.7895E+01
   6.960  0.3527E-01  0.7895E+01
   6.970  0.4002E-01  0.7895E+01
   6.980  0.4507E-01  0.7896E+01
   6.990  0.5043E-01  0.7896E+01
   7.000  0.5605E-01  0.7897E+01
   7.010  0.6195E-01  0.7897E+01
   7.020  0.6810E-01  0.7898E+01
   7.030  0.7449E-01  0.7899E+01
   7.040  0.8115E-01  0.7900E+01
   7.050  0.8806E-01  0.7901E+01
   7.060  0.9526E-01  0.7902E+01
   7.070  0.1028E+00  0.7903E+01
   7.080  0.1106E+00  0.7904E+01
   7.090  0.1188E+00  0.7905E+01
   7.100  0.1274E+00  0.7906E+01
   7.110  0.1363E+00  0.7907E+01
   7.120  0.1457E+00  0.7909E+01
   7.130  0.1554E+00  0.7910E+01
   7.140  0.1654E+00  0.7912E+01
   7.150  0.1758E+00  0.7914E+01
   7.160  0.1864E+00  0.7916E+01
   7.170  0.1971E+00  0.7918E+01
   7.180  0.2079E+00  0.7920E+01
   7.190  0.2186E+00  0.7922E+01
   7.200  0.2290E+00  0.7924E+01
   7.210  0.2392E+00  0.7927E+01
   7.220  0.2489E+00  0.7929E+01
   7.230  0.2581E+00  0.7932E+01
   7.240  0.2666E+00  0.7934E+01
   7.250  0.2744E+00  0.7937E+01
   7.260  0.2815E+00  0.7940E+01
   7.270  0.2879E+00  0.7943E+01
   7.280  0.2936E+00  0.7946E+01
   7.290  0.2985E+00  0.7949E+01
   7.300  0.3028E+00  0.7952E+01
   7.310  0.3066E+00  0.7955E+01
   7.320  0.3100E+00  0.7958E+01
   7.330  0.3130E+00  0.7961E+01
   7.340  0.3158E+00  0.7964E+01
   7.350  0.3185E+00  0.7967E+01
   7.360  0.3213E+00  0.7971E+01
   7.370  0.3242E+00  0.7974E+01
   7.380  0.3274E+00  0.7977E+01
   7.390  0.3309E+00  0.7980E+01
   7.400  0.3349E+00  0.7984E+01
   7.410  0.3395E+00  0.7987E+01
   7.420  0.3447E+00  0.7991E+01
   7.430  0.3506E+00  0.7994E+01
   7.440  0.3572E+00  0.7998E+01
   7.450  0.3645E+00  0.8001E+01
   7.460  0.3726E+00  0.8005E+01
   7.470  0.3814E+00  0.8009E+01
   7.480  0.3909E+00  0.8013E+01
   7.490  0.4009E+00  0.8017E+01
   7.500  0.4113E+00  0.8021E+01
   7.510  0.4220E+00  0.8025E+01
   7.520  0.4328E+00  0.8030E+01
   7.530  0.4436E+00  0.8034E+01
   7.540  0.4541E+00  0.8038E+01
   7.550  0.4642E+00  0.8043E+01
   7.560  0.4736E+00  0.8048E+01
   7.570  0.4822E+00  0.8053E+01
   7.580  0.4899E+00  0.8058E+01
   7.590  0.4966E+00  0.8063E+01
   7.600  0.5021E+00  0.8068E+01
   7.610  0.5066E+00  0.8073E+01
   7.620  0.5099E+00  0.8078E+01
   7.630  0.5123E+00  0.8083E+01
   7.640  0.5137E+00  0.8088E+01
   7.650  0.5144E+00  0.8093E+01
   7.660  0.5146E+00  0.8098E+01
   7.670  0.5143E+00  0.8103E+01
   7.680  0.5139E+00  0.8109E+01
   7.690  0.5136E+00  0.8114E+01
   7.700  0.5134E+00  0.8119E+01
   7.710  0.5137E+00  0.8124E+01
   7.720  0.5144E+00  0.8129E+01
   7.730  0.5158E+00  0.8134E+01
   7.740  0.5179E+00  0.8139E+01
   7.750  0.5207E+00  0.8145E+01
   7.760  0.5242E+00  0.8150E+01
   7.770  0.5283E+00  0.8155E+01
   7.780  0.5331E+00  0.8161E+01
   7.790  0.5383E+00  0.8166E+01
   7.800  0.5439E+00  0.8171E+01
   7.810  0.5499E+00  0.8177E+01
   7.820  0.5560E+00  0.8182E+01
   7.830  0.5622E+00  0.8188E+01
   7.840  0.5685E+00  0.8194E+01
   7.850  0.5748E+00  0.8199E+01
   7.860  0.5811E+00  0.8205E+01
   7.870  0.5873E+00  0.8211E+01
   7.880  0.5936E+00  0.8217E+01
   7.890  0.5999E+00  0.8223E+01
   7.900  0.6063E+00  0.8229E+01
   7.910  0.6129E+00  0.8235E+01
   7.920  0.6197E+00  0.8241E+01
   7.930  0.6268E+00  0.8248E+01
   7.940  0.6342E+00  0.8254E+01
   7.950  0.6420E+00  0.8261E+01
   7.960  0.6502E+00  0.8267E+01
   7.970  0.6587E+00  0.8274E+01
   7.980  0.6676E+00  0.8280E+01
   7.990  0.6767E+00  0.8287E+01
   8.000  0.6861E+00  0.8294E+01
   8.010  0.6957E+00  0.8301E+01
   8.020  0.7054E+00  0.8308E+01
   8.030  0.7152E+00  0.8315E+01
   8.040  0.7250E+00  0.8322E+01
   8.050  0.7347E+00  0.8330E+01
   8.060  0.7443E+00  0.8337E+01
   8.070  0.7538E+00  0.8345E+01
   8.080  0.7632E+00  0.8352E+01
   8.090  0.7724E+00  0.8360E+01
   8.100  0.7815E+00  0.8368E+01
   8.110  0.7905E+00  0.8376E+01
   8.120  0.7993E+00  0.8384E+01
   8.130  0.8079E+00  0.8392E+01
   8.140  0.8163E+00  0.8400E+01
   8.150  0.8244E+00  0.8408E+01
   8.160  0.8322E+00  0.8417E+01
   8.170  0.8394E+00  0.8425E+01
   8.180  0.8462E+00  0.8433E+01
   8.190  0.8523E+00  0.8442E+01
   8.200  0.8578E+00  0.8450E+01
   8.210  0.8625E+00  0.8459E+01
   8.220  0.8665E+00  0.8468E+01
   8.230  0.8698E+00  0.8476E+01
   8.240  0.8726E+00  0.8485E+01
   8.250  0.8750E+00  0.8494E+01
   8.260  0.8771E+00  0.8503E+01
   8.270  0.8793E+00  0.8511E+01
   8.280  0.8819E+00  0.8520E+01
   8.290  0.8851E+00  0.8529E+01
   8.300  0.8892E+00  0.8538E+01
   8.310  0.8945E+00  0.8547E+01
   8.320  0.9014E+00  0.8556E+01
   8.330  0.9099E+00  0.8565E+01
   8.340  0.9203E+00  0.8574E+01
   8.350  0.9326E+00  0.8584E+01
   8.360  0.9467E+00  0.8593E+01
   8.370  0.9627E+00  0.8603E+01
   8.380  0.9802E+00  0.8613E+01
   8.390  0.9991E+00  0.8623E+01
   8.400  0.1019E+01  0.8633E+01
   8.410  0.1040E+01  0.8643E+01
   8.420  0.1061E+01  0.8654E+01
   8.430  0.1082E+01  0.8665E+01
   8.440  0.1103E+01  0.8676E+01
   8.450  0.1123E+01  0.8687E+01
   8.460  0.1143E+01  0.8698E+01
   8.470  0.1161E+01  0.8710E+01
   8.480  0.1179E+01  0.8722E+01
   8.490  0.1196E+01  0.8734E+01
   8.500  0.1212E+01  0.8746E+01
   8.510  0.1227E+01  0.8758E+01
   8.520  0.1242E+01  0.8770E+01
   8.530  0.1256E+01  0.8783E+01
   8.540  0.1270E+01  0.8796E+01
   8.550  0.1284E+01  0.8809E+01
   8.560  0.1297E+01  0.8821E+01
   8.570  0.1311E+01  0.8835E+01
   8.580  0.1325E+01  0.8848E+01
   8.590  0.1338E+01  0.8861E+01
   8.600  0.1352E+01  0.8875E+01
   8.610  0.1366E+01  0.8888E+01
   8.620  0.1380E+01  0.8902E+01
   8.630  0.1394E+01  0.8916E+01
   8.640  0.1407E+01  0.8930E+01
   8.650  0.1420E+01  0.8944E+01
   8.660  0.1433E+01  0.8959E+01
   8.670  0.1445E+01  0.8973E+01
   8.680  0.1456E+01  0.8988E+01
   8.690  0.1467E+01  0.9002E+01
   8.700  0.1477E+01  0.9017E+01
   8.710  0.1487E+01  0.9032E+01
   8.720  0.1496E+01  0.9047E+01
   8.730  0.1504E+01  0.9062E+01
   8.740  0.1512E+01  0.9077E+01
   8.750  0.1520E+01  0.9092E+01
   8.760  0.1527E+01  0.9108E+01
   8.770  0.1534E+01  0.9123E+01
   8.780  0.1540E+01  0.9138E+01
   8.790  0.1546E+01  0.9154E+01
   8.800  0.1551E+01  0.9169E+01
   8.810  0.1556E+01  0.9185E+01
   8.820  0.1559E+01  0.9201E+01
   8.830  0.1561E+01  0.9216E+01
   8.840  0.1563E+01  0.9232E+01
   8.850  0.1563E+01  0.9247E+01
   8.860  0.1562E+01  0.9263E+01
   8.870  0.1559E+01  0.9279E+01
   8.880  0.1555E+01  0.9294E+01
   8.890  0.1549E+01  0.9310E+01
   8.900  0.1542E+01  0.9325E+01
   8.910  0.1533E+01  0.9340E+01
   8.920  0.1524E+01  0.9356E+01
   8.930  0.1513E+01  0.9371E+01
   8.940  0.1501E+01  0.9386E+01
   8.950  0.1489E+01  0.9401E+01
   8.960  0.1476E+01  0.9415E+01
   8.970  0.1464E+01  0.9430E+01
   8.980  0.1451E+01  0.9445E+01
   8.990  0.1439E+01  0.9459E+01
   9.000  0.1427E+01  0.9473E+01
   9.010  0.1417E+01  0.9487E+01
   9.020  0.1407E+01  0.9501E+01
   9.030  0.1398E+01  0.9515E+01
   9.040  0.1390E+01  0.9529E+01
   9.050  0.1382E+01  0.9543E+01
   9.060  0.1376E+01  0.9557E+01
   9.070  0.1371E+01  0.9571E+01
   9.080  0.1365E+01  0.9584E+01
   9.090  0.1361E+01  0.9598E+01
   9.100  0.1356E+01  0.9611E+01
   9.110  0.1351E+01  0.9625E+01
   9.120  0.1346E+01  0.9638E+01
   9.130  0.1341E+01  0.9652E+01
   9.140  0.1335E+01  0.9665E+01
   9.150  0.1328E+01  0.9678E+01
   9.160  0.1321E+01  0.9692E+01
   9.170  0.1312E+01  0.9705E+01
   9.180  0.1303E+01  0.9718E+01
   9.190  0.1293E+01  0.9731E+01
   9.200  0.1281E+01  0.9744E+01
   9.210  0.1269E+01  0.9756E+01
   9.220  0.1257E+01  0.9769E+01
   9.230  0.1243E+01  0.9781E+01
   9.240  0.1229E+01  0.9794E+01
   9.250  0.1214E+01  0.9806E+01
   9.260  0.1199E+01  0.9818E+01
   9.270  0.1184E+01  0.9830E+01
   9.280  0.1168E+01  0.9841E+01
   9.290  0.1153E+01  0.9853E+01
   9.300  0.1137E+01  0.9864E+01
   9.310  0.1122E+01  0.9875E+01
   9.320  0.1107E+01  0.9886E+01
   9.330  0.1094E+01  0.9897E+01
   9.340  0.1081E+01  0.9908E+01
   9.350  0.1070E+01  0.9919E+01
   9.360  0.1061E+01  0.9929E+01
   9.370  0.1054E+01  0.9940E+01
   9.380  0.1049E+01  0.9950E+01
   9.390  0.1047E+01  0.9961E+01
   9.400  0.1047E+01  0.9971E+01
   9.410  0.1050E+01  0.9982E+01
   9.420  0.1057E+01  0.9993E+01
   9.430  0.1065E+01  0.1000E+02
   9.440  0.1077E+01  0.1001E+02
   9.450  0.1091E+01  0.1002E+02
   9.460  0.1108E+01  0.1004E+02
   9.470  0.1127E+01  0.1005E+02
   9.480  0.1148E+01  0.1006E+02
   9.490  0.1171E+01  0.1007E+02
   9.500  0.1195E+01  0.1008E+02
   9.510  0.1220E+01  0.1009E+02
   9.520  0.1246E+01  0.1011E+02
   9.530  0.1273E+01  0.1012E+02
   9.540  0.1301E+01  0.1013E+02
   9.550  0.1330E+01  0.1015E+02
   9.560  0.1359E+01  0.1016E+02
   9.570  0.1389E+01  0.1017E+02
   9.580  0.1420E+01  0.1019E+02
   9.590  0.1451E+01  0.1020E+02
   9.600  0.1484E+01  0.1022E+02
   9.610  0.1517E+01  0.1023E+02
   9.620  0.1552E+01  0.1025E+02
   9.630  0.1587E+01  0.1026E+02
   9.640  0.1624E+01  0.1028E+02
   9.650  0.1662E+01  0.1030E+02
   9.660  0.1700E+01  0.1031E+02
   9.670  0.1739E+01  0.1033E+02
   9.680  0.1779E+01  0.1035E+02
   9.690  0.1818E+01  0.1037E+02
   9.700  0.1856E+01  0.1039E+02
   9.710  0.1893E+01  0.1040E+02
   9.720  0.1928E+01  0.1042E+02
   9.730  0.1960E+01  0.1044E+02
   9.740  0.1990E+01  0.1046E+02
   9.750  0.2015E+01  0.1048E+02
   9.760  0.2037E+01  0.1050E+02
   9.770  0.2053E+01  0.1052E+02
   9.780  0.2065E+01  0.1054E+02
   9.790  0.2071E+01  0.1057E+02
   9.800  0.2071E+01  0.1059E+02
   9.810  0.2067E+01  0.1061E+02
   9.820  0.2056E+01  0.1063E+02
   9.830  0.2041E+01  0.1065E+02
   9.840  0.2022E+01  0.1067E+02
   9.850  0.1998E+01  0.1069E+02
   9.860  0.1971E+01  0.1071E+02
   9.870  0.1942E+01  0.1073E+02
   9.880  0.1910E+01  0.1075E+02
   9.890  0.1877E+01  0.1077E+02
   9.900  0.1844E+01  0.1078E+02
   9.910  0.1811E+01  0.1080E+02
   9.920  0.1779E+01  0.1082E+02
   9.930  0.1749E+01  0.1084E+02
   9.940  0.1720E+01  0.1085E+02
   9.950  0.1694E+01  0.1087E+02
   9.960  0.1670E+01  0.1089E+02
   9.970  0.1650E+01  0.1090E+02
   9.980  0.1632E+01  0.1092E+02
   9.990  0.1618E+01  0.1094E+02
  10.000  0.1607E+01  0.1095E+02
  10.010  0.1599E+01  0.1097E+02
  10.020  0.1593E+01  0.1098E+02
  10.030  0.1591E+01  0.1100E+02
  10.040  0.1590E+01  0.1102E+02
  10.050  0.1592E+01  0.1103E+02
  10.060  0.1595E+01  0.1105E+02
  10.070  0.1600E+01  0.1106E+02
  10.080  0.1605E+01  0.1108E+02
  10.090  0.1611E+01  0.1110E+02
  10.100  0.1617E+01  0.1111E+02
  10.110  0.1622E+01  0.1113E+02
  10.120  0.1625E+01  0.1115E+02
  10.130  0.1628E+01  0.1116E+02
  10.140  0.1628E+01  0.1118E+02
  10.150  0.1627E+01  0.1119E+02
  10.160  0.1623E+01  0.1121E+02
  10.170  0.1617E+01  0.1123E+02
  10.180  0.1609E+01  0.1124E+02
  10.190  0.1598E+01  0.1126E+02
  10.200  0.1586E+01  0.1127E+02
  10.210  0.1572E+01  0.1129E+02
  10.220  0.1557E+01  0.1131E+02
  10.230  0.1541E+01  0.1132E+02
  10.240  0.1525E+01  0.1134E+02
  10.250  0.1510E+01  0.1135E+02
  10.260  0.1495E+01  0.1137E+02
  10.270  0.1482E+01  0.1138E+02
  10.280  0.1471E+01  0.1140E+02
  10.290  0.1462E+01  0.1141E+02
  10.300  0.1456E+01  0.1143E+02
  10.310  0.1452E+01  0.1144E+02
  10.320  0.1452E+01  0.1145E+02
  10.330  0.1454E+01  0.1147E+02
  10.340  0.1459E+01  0.1148E+02
  10.350  0.1466E+01  0.1150E+02
  10.360  0.1475E+01  0.1151E+02
  10.370  0.1485E+01  0.1153E+02
  10.380  0.1496E+01  0.1154E+02
  10.390  0.1508E+01  0.1156E+02
  10.400  0.1519E+01  0.1157E+02
  10.410  0.1530E+01  0.1159E+02
  10.420  0.1538E+01  0.1160E+02
  10.430  0.1545E+01  0.1162E+02
  10.440  0.1549E+01  0.1163E+02
  10.450  0.1549E+01  0.1165E+02
  10.460  0.1547E+01  0.1167E+02
  10.470  0.1540E+01  0.1168E+02
  10.480  0.1529E+01  0.1170E+02
  10.490  0.1515E+01  0.1171E+02
  10.500  0.1496E+01  0.1173E+02
  10.510  0.1475E+01  0.1174E+02
  10.520  0.1449E+01  0.1176E+02
  10.530  0.1421E+01  0.1177E+02
  10.540  0.1391E+01  0.1178E+02
  10.550  0.1358E+01  0.1180E+02
  10.560  0.1325E+01  0.1181E+02
  10.570  0.1291E+01  0.1182E+02
  10.580  0.1257E+01  0.1184E+02
  10.590  0.1224E+01  0.1185E+02
  10.600  0.1193E+01  0.1186E+02
  10.610  0.1163E+01  0.1187E+02
  10.620  0.1136E+01  0.1188E+02
  10.630  0.1111E+01  0.1189E+02
  10.640  0.1089E+01  0.1190E+02
  10.650  0.1070E+01  0.1192E+02
  10.660  0.1055E+01  0.1193E+02
  10.670  0.1043E+01  0.1194E+02
  10.680  0.1034E+01  0.1195E+02
  10.690  0.1028E+01  0.1196E+02
  10.700  0.1025E+01  0.1197E+02
  10.710  0.1025E+01  0.1198E+02
  10.720  0.1027E+01  0.1199E+02
  10.730  0.1032E+01  0.1200E+02
  10.740  0.1038E+01  0.1201E+02
  10.750  0.1046E+01  0.1202E+02
  10.760  0.1055E+01  0.1203E+02
  10.770  0.1066E+01  0.1204E+02
  10.780  0.1078E+01  0.1205E+02
  10.790  0.1091E+01  0.1206E+02
  10.800  0.1105E+01  0.1207E+02
  10.810  0.1120E+01  0.1208E+02
  10.820  0.1136E+01  0.1210E+02
  10.830  0.1153E+01  0.1211E+02
  10.840  0.1170E+01  0.1212E+02
  10.850  0.1189E+01  0.1213E+02
  10.860  0.1208E+01  0.1214E+02
  10.870  0.1227E+01  0.1216E+02
  10.880  0.1248E+01  0.1217E+02
  10.890  0.1268E+01  0.1218E+02
  10.900  0.1289E+01  0.1219E+02
  10.910  0.1309E+01  0.1221E+02
  10.920  0.1330E+01  0.1222E+02
  10.930  0.1350E+01  0.1223E+02
  10.940  0.1369E+01  0.1225E+02
  10.950  0.1386E+01  0.1226E+02
  10.960  0.1403E+01  0.1227E+02
  10.970  0.1417E+01  0.1229E+02
  10.980  0.1429E+01  0.1230E+02
  10.990  0.1439E+01  0.1232E+02
  11.000  0.1446E+01  0.1233E+02
  11.010  0.1450E+01  0.1235E+02
  11.020  0.1451E+01  0.1236E+02
  11.030  0.1449E+01  0.1238E+02
  11.040  0.1444E+01  0.1239E+02
  11.050  0.1436E+01  0.1240E+02
  11.060  0.1425E+01  0.1242E+02
  11.070  0.1411E+01  0.1243E+02
  11.080  0.1395E+01  0.1245E+02
  11.090  0.1377E+01  0.1246E+02
  11.100  0.1357E+01  0.1247E+02
  11.110  0.1335E+01  0.1249E+02
  11.120  0.1312E+01  0.1250E+02
  11.130  0.1288E+01  0.1251E+02
  11.140  0.1263E+01  0.1253E+02
  11.150  0.1239E+01  0.1254E+02
  11.160  0.1214E+01  0.1255E+02
  11.170  0.1190E+01  0.1256E+02
  11.180  0.1167E+01  0.1257E+02
  11.190  0.1146E+01  0.1259E+02
  11.200  0.1126E+01  0.1260E+02
  11.210  0.1108E+01  0.1261E+02
  11.220  0.1092E+01  0.1262E+02
  11.230  0.1078E+01  0.1263E+02
  11.240  0.1066E+01  0.1264E+02
  11.250  0.1058E+01  0.1265E+02
  11.260  0.1051E+01  0.1266E+02
  11.270  0.1048E+01  0.1267E+02
  11.280  0.1046E+01  0.1268E+02
  11.290  0.1048E+01  0.1269E+02
  11.300  0.1051E+01  0.1270E+02
  11.310  0.1056E+01  0.1271E+02
  11.320  0.1064E+01  0.1272E+02
  11.330  0.1073E+01  0.1274E+02
  11.340  0.1084E+01  0.1275E+02
  11.350  0.1096E+01  0.1276E+02
  11.360  0.1109E+01  0.1277E+02
  11.370  0.1124E+01  0.1278E+02
  11.380  0.1139E+01  0.1279E+02
  11.390  0.1155E+01  0.1280E+02
  11.400  0.1171E+01  0.1281E+02
  11.410  0.1188E+01  0.1283E+02
  11.420  0.1205E+01  0.1284E+02
  11.430  0.1222E+01  0.1285E+02
  11.440  0.1239E+01  0.1286E+02
  11.450  0.1255E+01  0.1288E+02
  11.460  0.1271E+01  0.1289E+02
  11.470  0.1286E+01  0.1290E+02
  11.480  0.1300E+01  0.1291E+02
  11.490  0.1312E+01  0.1293E+02
  11.500  0.1323E+01  0.1294E+02
  11.510  0.1331E+01  0.1295E+02
  11.520  0.1338E+01  0.1297E+02
  11.530  0.1343E+01  0.1298E+02
  11.540  0.1345E+01  0.1299E+02
  11.550  0.1345E+01  0.1301E+02
  11.560  0.1342E+01  0.1302E+02
  11.570  0.1337E+01  0.1303E+02
  11.580  0.1330E+01  0.1305E+02
  11.590  0.1321E+01  0.1306E+02
  11.600  0.1311E+01  0.1307E+02
  11.610  0.1299E+01  0.1309E+02
  11.620  0.1285E+01  0.1310E+02
  11.630  0.1271E+01  0.1311E+02
  11.640  0.1256E+01  0.1312E+02
  11.650  0.1241E+01  0.1314E+02
  11.660  0.1226E+01  0.1315E+02
  11.670  0.1210E+01  0.1316E+02
  11.680  0.1196E+01  0.1317E+02
  11.690  0.1181E+01  0.1319E+02
  11.700  0.1168E+01  0.1320E+02
  11.710  0.1154E+01  0.1321E+02
  11.720  0.1142E+01  0.1322E+02
  11.730  0.1130E+01  0.1323E+02
  11.740  0.1119E+01  0.1324E+02
  11.750  0.1108E+01  0.1325E+02
  11.760  0.1098E+01  0.1326E+02
  11.770  0.1089E+01  0.1328E+02
  11.780  0.1079E+01  0.1329E+02
  11.790  0.1071E+01  0.1330E+02
  11.800  0.1062E+01  0.1331E+02
  11.810  0.1055E+01  0.1332E+02
  11.820  0.1048E+01  0.1333E+02
  11.830  0.1041E+01  0.1334E+02
  11.840  0.1036E+01  0.1335E+02
  11.850  0.1032E+01  0.1336E+02
  11.860  0.1029E+01  0.1337E+02
  11.870  0.1027E+01  0.1338E+02
  11.880  0.1028E+01  0.1339E+02
  11.890  0.1029E+01  0.1340E+02
  11.900  0.1033E+01  0.1341E+02
  11.910  0.1039E+01  0.1342E+02
  11.920  0.1046E+01  0.1343E+02
  11.930  0.1055E+01  0.1344E+02
  11.940  0.1066E+01  0.1345E+02
  11.950  0.1079E+01  0.1346E+02
  11.960  0.1093E+01  0.1347E+02
  11.970  0.1107E+01  0.1349E+02
  11.980  0.1123E+01  0.1350E+02
  11.990  0.1139E+01  0.1351E+02
  12.000  0.1156E+01  0.1352E+02
  12.010  0.1172E+01  0.1353E+02
  12.020  0.1188E+01  0.1354E+02
  12.030  0.1203E+01  0.1356E+02
  12.040  0.1216E+01  0.1357E+02
  12.050  0.1228E+01  0.1358E+02
  12.060  0.1239E+01  0.1359E+02
  12.070  0.1248E+01  0.1360E+02
  12.080  0.1254E+01  0.1362E+02
  12.090  0.1259E+01  0.1363E+02
  12.100  0.1261E+01  0.1364E+02
  12.110  0.1261E+01  0.1366E+02
  12.120  0.1259E+01  0.1367E+02
  12.130  0.1255E+01  0.1368E+02
  12.140  0.1250E+01  0.1369E+02
  12.150  0.1242E+01  0.1371E+02
  12.160  0.1233E+01  0.1372E+02
  12.170  0.1222E+01  0.1373E+02
  12.180  0.1210E+01  0.1374E+02
  12.190  0.1197E+01  0.1375E+02
  12.200  0.1183E+01  0.1377E+02
  12.210  0.1169E+01  0.1378E+02
  12.220  0.1154E+01  0.1379E+02
  12.230  0.1138E+01  0.1380E+02
  12.240  0.1122E+01  0.1381E+02
  12.250  0.1106E+01  0.1382E+02
  12.260  0.1090E+01  0.1383E+02
  12.270  0.1073E+01  0.1384E+02
  12.280  0.1056E+01  0.1385E+02
  12.290  0.1039E+01  0.1387E+02
  12.300  0.1022E+01  0.1388E+02
  12.310  0.1006E+01  0.1389E+02
  12.320  0.9894E+00  0.1390E+02
  12.330  0.9735E+00  0.1391E+02
  12.340  0.9582E+00  0.1391E+02
  12.350  0.9439E+00  0.1392E+02
  12.360  0.9307E+00  0.1393E+02
  12.370  0.9189E+00  0.1394E+02
  12.380  0.9086E+00  0.1395E+02
  12.390  0.9002E+00  0.1396E+02
  12.400  0.8938E+00  0.1397E+02
  12.410  0.8896E+00  0.1398E+02
  12.420  0.8877E+00  0.1399E+02
  12.430  0.8881E+00  0.1400E+02
  12.440  0.8909E+00  0.1401E+02
  12.450  0.8960E+00  0.1401E+02
  12.460  0.9032E+00  0.1402E+02
  12.470  0.9124E+00  0.1403E+02
  12.480  0.9234E+00  0.1404E+02
  12.490  0.9357E+00  0.1405E+02
  12.500  0.9492E+00  0.1406E+02
  12.510  0.9636E+00  0.1407E+02
  12.520  0.9784E+00  0.1408E+02
  12.530  0.9935E+00  0.1409E+02
  12.540  0.1009E+01  0.1410E+02
  12.550  0.1023E+01  0.1411E+02
  12.560  0.1038E+01  0.1412E+02
  12.570  0.1051E+01  0.1413E+02
  12.580  0.1064E+01  0.1414E+02
  12.590  0.1077E+01  0.1415E+02
  12.600  0.1088E+01  0.1416E+02
  12.610  0.1099E+01  0.1417E+02
  12.620  0.1110E+01  0.1419E+02
  12.630  0.1120E+01  0.1420E+02
  12.640  0.1129E+01  0.1421E+02
  12.650  0.1138E+01  0.1422E+02
  12.660  0.1147E+01  0.1423E+02
  12.670  0.1155E+01  0.1424E+02
  12.680  0.1163E+01  0.1425E+02
  12.690  0.1170E+01  0.1427E+02
  12.700  0.1177E+01  0.1428E+02
  12.710  0.1183E+01  0.1429E+02
  12.720  0.1189E+01  0.1430E+02
  12.730  0.1193E+01  0.1431E+02
  12.740  0.1196E+01  0.1432E+02
  12.750  0.1198E+01  0.1434E+02
  12.760  0.1199E+01  0.1435E+02
  12.770  0.1199E+01  0.1436E+02
  12.780  0.1197E+01  0.1437E+02
  12.790  0.1193E+01  0.1438E+02
  12.800  0.1189E+01  0.1440E+02
  12.810  0.1183E+01  0.1441E+02
  12.820  0.1176E+01  0.1442E+02
  12.830  0.1167E+01  0.1443E+02
  12.840  0.1158E+01  0.1444E+02
  12.850  0.1148E+01  0.1445E+02
  12.860  0.1137E+01  0.1447E+02
  12.870  0.1126E+01  0.1448E+02
  12.880  0.1114E+01  0.1449E+02
  12.890  0.1102E+01  0.1450E+02
  12.900  0.1089E+01  0.1451E+02
  12.910  0.1077E+01  0.1452E+02
  12.920  0.1065E+01  0.1453E+02
  12.930  0.1053E+01  0.1454E+02
  12.940  0.1042E+01  0.1455E+02
  12.950  0.1031E+01  0.1456E+02
  12.960  0.1021E+01  0.1457E+02
  12.970  0.1012E+01  0.1458E+02
  12.980  0.1005E+01  0.1459E+02
  12.990  0.9981E+00  0.1460E+02
  13.000  0.9930E+00  0.1461E+02
  13.010  0.9894E+00  0.1462E+02
  13.020  0.9873E+00  0.1463E+02
  13.030  0.9870E+00  0.1464E+02
  13.040  0.9882E+00  0.1465E+02
  13.050  0.9911E+00  0.1466E+02
  13.060  0.9956E+00  0.1467E+02
  13.070  0.1002E+01  0.1468E+02
  13.080  0.1009E+01  0.1469E+02
  13.090  0.1018E+01  0.1470E+02
  13.100  0.1027E+01  0.1471E+02
  13.110  0.1038E+01  0.1472E+02
  13.120  0.1049E+01  0.1473E+02
  13.130  0.1060E+01  0.1475E+02
  13.140  0.1072E+01  0.1476E+02
  13.150  0.1084E+01  0.1477E+02
  13.160  0.1097E+01  0.1478E+02
  13.170  0.1109E+01  0.1479E+02
  13.180  0.1122E+01  0.1480E+02
  13.190  0.1134E+01  0.1481E+02
  13.200  0.1147E+01  0.1482E+02
  13.210  0.1161E+01  0.1483E+02
  13.220  0.1174E+01  0.1485E+02
  13.230  0.1189E+01  0.1486E+02
  13.240  0.1203E+01  0.1487E+02
  13.250  0.1219E+01  0.1488E+02
  13.260  0.1235E+01  0.1489E+02
  13.270  0.1252E+01  0.1491E+02
  13.280  0.1269E+01  0.1492E+02
  13.290  0.1287E+01  0.1493E+02
  13.300  0.1304E+01  0.1495E+02
  13.310  0.1321E+01  0.1496E+02
  13.320  0.1337E+01  0.1497E+02
  13.330  0.1352E+01  0.1499E+02
  13.340  0.1364E+01  0.1500E+02
  13.350  0.1375E+01  0.1501E+02
  13.360  0.1383E+01  0.1503E+02
  13.370  0.1387E+01  0.1504E+02
  13.380  0.1389E+01  0.1505E+02
  13.390  0.1386E+01  0.1507E+02
  13.400  0.1381E+01  0.1508E+02
  13.410  0.1371E+01  0.1510E+02
  13.420  0.1358E+01  0.1511E+02
  13.430  0.1342E+01  0.1512E+02
  13.440  0.1323E+01  0.1514E+02
  13.450  0.1301E+01  0.1515E+02
  13.460  0.1278E+01  0.1516E+02
  13.470  0.1253E+01  0.1517E+02
  13.480  0.1227E+01  0.1519E+02
  13.490  0.1202E+01  0.1520E+02
  13.500  0.1176E+01  0.1521E+02
  13.510  0.1151E+01  0.1522E+02
  13.520  0.1127E+01  0.1523E+02
  13.530  0.1104E+01  0.1524E+02
  13.540  0.1083E+01  0.1526E+02
  13.550  0.1064E+01  0.1527E+02
  13.560  0.1047E+01  0.1528E+02
  13.570  0.1031E+01  0.1529E+02
  13.580  0.1017E+01  0.1530E+02
  13.590  0.1005E+01  0.1531E+02
  13.600  0.9945E+00  0.1532E+02
  13.610  0.9855E+00  0.1533E+02
  13.620  0.9780E+00  0.1534E+02
  13.630  0.9717E+00  0.1535E+02
  13.640  0.9666E+00  0.1536E+02
  13.650  0.9626E+00  0.1537E+02
  13.660  0.9595E+00  0.1538E+02
  13.670  0.9572E+00  0.1538E+02
  13.680  0.9558E+00  0.1539E+02
  13.690  0.9551E+00  0.1540E+02
  13.700  0.9550E+00  0.1541E+02
  13.710  0.9556E+00  0.1542E+02
  13.720  0.9568E+00  0.1543E+02
  13.730  0.9585E+00  0.1544E+02
  13.740  0.9607E+00  0.1545E+02
  13.750  0.9635E+00  0.1546E+02
  13.760  0.9669E+00  0.1547E+02
  13.770  0.9709E+00  0.1548E+02
  13.780  0.9755E+00  0.1549E+02
  13.790  0.9808E+00  0.1550E+02
  13.800  0.9871E+00  0.1551E+02
  13.810  0.9942E+00  0.1552E+02
  13.820  0.1003E+01  0.1553E+02
  13.830  0.1012E+01  0.1554E+02
  13.840  0.1023E+01  0.1555E+02
  13.850  0.1035E+01  0.1556E+02
  13.860  0.1049E+01  0.1557E+02
  13.870  0.1065E+01  0.1558E+02
  13.880  0.1082E+01  0.1559E+02
  13.890  0.1101E+01  0.1560E+02
  13.900  0.1122E+01  0.1561E+02
  13.910  0.1143E+01  0.1563E+02
  13.920  0.1166E+01  0.1564E+02
  13.930  0.1190E+01  0.1565E+02
  13.940  0.1215E+01  0.1566E+02
  13.950  0.1239E+01  0.1567E+02
  13.960  0.1264E+01  0.1569E+02
  13.970  0.1288E+01  0.1570E+02
  13.980  0.1311E+01  0.1571E+02
  13.990  0.1333E+01  0.1573E+02
  14.000  0.1354E+01  0.1574E+02
  14.010  0.1372E+01  0.1575E+02
  14.020  0.1389E+01  0.1577E+02
  14.030  0.1403E+01  0.1578E+02
  14.040  0.1414E+01  0.1580E+02
  14.050  0.1423E+01  0.1581E+02
  14.060  0.1430E+01  0.1582E+02
  14.070  0.1434E+01  0.1584E+02
  14.080  0.1435E+01  0.1585E+02
  14.090  0.1434E+01  0.1587E+02
  14.100  0.1431E+01  0.1588E+02
  14.110  0.1425E+01  0.1590E+02
  14.120  0.1418E+01  0.1591E+02
  14.130  0.1410E+01  0.1592E+02
  14.140  0.1400E+01  0.1594E+02
  14.150  0.1389E+01  0.1595E+02
  14.160  0.1377E+01  0.1597E+02
  14.170  0.1365E+01  0.1598E+02
  14.180  0.1352E+01  0.1599E+02
  14.190  0.1339E+01  0.1601E+02
  14.200  0.1326E+01  0.1602E+02
  14.210  0.1313E+01  0.1603E+02
  14.220  0.1300E+01  0.1605E+02
  14.230  0.1287E+01  0.1606E+02
  14.240  0.1274E+01  0.1607E+02
  14.250  0.1261E+01  0.1608E+02
  14.260  0.1249E+01  0.1610E+02
  14.270  0.1236E+01  0.1611E+02
  14.280  0.1224E+01  0.1612E+02
  14.290  0.1212E+01  0.1613E+02
  14.300  0.1200E+01  0.1615E+02
  14.310  0.1189E+01  0.1616E+02
  14.320  0.1178E+01  0.1617E+02
  14.330  0.1167E+01  0.1618E+02
  14.340  0.1157E+01  0.1619E+02
  14.350  0.1148E+01  0.1620E+02
  14.360  0.1140E+01  0.1622E+02
  14.370  0.1133E+01  0.1623E+02
  14.380  0.1127E+01  0.1624E+02
  14.390  0.1123E+01  0.1625E+02
  14.400  0.1120E+01  0.1626E+02
  14.410  0.1119E+01  0.1627E+02
  14.420  0.1119E+01  0.1628E+02
  14.430  0.1121E+01  0.1629E+02
  14.440  0.1125E+01  0.1630E+02
  14.450  0.1130E+01  0.1632E+02
  14.460  0.1136E+01  0.1633E+02
  14.470  0.1143E+01  0.1634E+02
  14.480  0.1152E+01  0.1635E+02
  14.490  0.1161E+01  0.1636E+02
  14.500  0.1171E+01  0.1637E+02
  14.510  0.1182E+01  0.1639E+02
  14.520  0.1193E+01  0.1640E+02
  14.530  0.1205E+01  0.1641E+02
  14.540  0.1216E+01  0.1642E+02
  14.550  0.1228E+01  0.1643E+02
  14.560  0.1239E+01  0.1645E+02
  14.570  0.1251E+01  0.1646E+02
  14.580  0.1262E+01  0.1647E+02
  14.590  0.1274E+01  0.1648E+02
  14.600  0.1284E+01  0.1650E+02
  14.610  0.1295E+01  0.1651E+02
  14.620  0.1305E+01  0.1652E+02
  14.630  0.1314E+01  0.1654E+02
  14.640  0.1322E+01  0.1655E+02
  14.650  0.1328E+01  0.1656E+02
  14.660  0.1334E+01  0.1658E+02
  14.670  0.1337E+01  0.1659E+02
  14.680  0.1339E+01  0.1660E+02
  14.690  0.1339E+01  0.1662E+02
  14.700  0.1336E+01  0.1663E+02
  14.710  0.1330E+01  0.1664E+02
  14.720  0.1322E+01  0.1666E+02
  14.730  0.1312E+01  0.1667E+02
  14.740  0.1299E+01  0.1668E+02
  14.750  0.1283E+01  0.1670E+02
  14.760  0.1266E+01  0.1671E+02
  14.770  0.1247E+01  0.1672E+02
  14.780  0.1227E+01  0.1673E+02
  14.790  0.1206E+01  0.1674E+02
  14.800  0.1184E+01  0.1676E+02
  14.810  0.1163E+01  0.1677E+02
  14.820  0.1142E+01  0.1678E+02
  14.830  0.1122E+01  0.1679E+02
  14.840  0.1103E+01  0.1680E+02
  14.850  0.1085E+01  0.1681E+02
  14.860  0.1069E+01  0.1682E+02
  14.870  0.1055E+01  0.1683E+02
  14.880  0.1042E+01  0.1684E+02
  14.890  0.1031E+01  0.1685E+02
  14.900  0.1022E+01  0.1686E+02
  14.910  0.1013E+01  0.1687E+02
  14.920  0.1007E+01  0.1689E+02
  14.930  0.1001E+01  0.1690E+02
  14.940  0.9966E+00  0.1690E+02
  14.950  0.9931E+00  0.1691E+02
  14.960  0.9905E+00  0.1692E+02
  14.970  0.9888E+00  0.1693E+02
  14.980  0.9880E+00  0.1694E+02
  14.990  0.9880E+00  0.1695E+02
  15.000  0.9889E+00  0.1696E+02
  15.010  0.9908E+00  0.1697E+02
  15.020  0.9937E+00  0.1698E+02
  15.030  0.9977E+00  0.1699E+02
  15.040  0.1003E+01  0.1700E+02
  15.050  0.1009E+01  0.1701E+02
  15.060  0.1017E+01  0.1702E+02
  15.070  0.1026E+01  0.1703E+02
  15.080  0.1036E+01  0.1705E+02
  15.090  0.1048E+01  0.1706E+02
  15.100  0.1062E+01  0.1707E+02
  15.110  0.1076E+01  0.1708E+02
  15.120  0.1093E+01  0.1709E+02
  15.130  0.1110E+01  0.1710E+02
  15.140  0.1129E+01  0.1711E+02
  15.150  0.1149E+01  0.1712E+02
  15.160  0.1170E+01  0.1713E+02
  15.170  0.1192E+01  0.1715E+02
  15.180  0.1215E+01  0.1716E+02
  15.190  0.1238E+01  0.1717E+02
  15.200  0.1261E+01  0.1718E+02
  15.210  0.1284E+01  0.1720E+02
  15.220  0.1306E+01  0.1721E+02
  15.230  0.1327E+01  0.1722E+02
  15.240  0.1348E+01  0.1724E+02
  15.250  0.1367E+01  0.1725E+02
  15.260  0.1384E+01  0.1726E+02
  15.270  0.1400E+01  0.1728E+02
  15.280  0.1413E+01  0.1729E+02
  15.290  0.1425E+01  0.1731E+02
  15.300  0.1434E+01  0.1732E+02
  15.310  0.1442E+01  0.1733E+02
  15.320  0.1446E+01  0.1735E+02
  15.330  0.1449E+01  0.1736E+02
  15.340  0.1449E+01  0.1738E+02
  15.350  0.1448E+01  0.1739E+02
  15.360  0.1444E+01  0.1741E+02
  15.370  0.1438E+01  0.1742E+02
  15.380  0.1430E+01  0.1743E+02
  15.390  0.1420E+01  0.1745E+02
  15.400  0.1408E+01  0.1746E+02
  15.410  0.1395E+01  0.1748E+02
  15.420  0.1380E+01  0.1749E+02
  15.430  0.1365E+01  0.1750E+02
  15.440  0.1348E+01  0.1752E+02
  15.450  0.1330E+01  0.1753E+02
  15.460  0.1312E+01  0.1754E+02
  15.470  0.1294E+01  0.1756E+02
  15.480  0.1275E+01  0.1757E+02
  15.490  0.1257E+01  0.1758E+02
  15.500  0.1239E+01  0.1760E+02
  15.510  0.1222E+01  0.1761E+02
  15.520  0.1206E+01  0.1762E+02
  15.530  0.1192E+01  0.1763E+02
  15.540  0.1179E+01  0.1764E+02
  15.550  0.1167E+01  0.1765E+02
  15.560  0.1158E+01  0.1767E+02
  15.570  0.1151E+01  0.1768E+02
  15.580  0.1145E+01  0.1769E+02
  15.590  0.1142E+01  0.1770E+02
  15.600  0.1141E+01  0.1771E+02
  15.610  0.1142E+01  0.1772E+02
  15.620  0.1145E+01  0.1774E+02
  15.630  0.1150E+01  0.1775E+02
  15.640  0.1157E+01  0.1776E+02
  15.650  0.1164E+01  0.1777E+02
  15.660  0.1173E+01  0.1778E+02
  15.670  0.1182E+01  0.1779E+02
  15.680  0.1192E+01  0.1781E+02
  15.690  0.1203E+01  0.1782E+02
  15.700  0.1213E+01  0.1783E+02
  15.710  0.1223E+01  0.1784E+02
  15.720  0.1233E+01  0.1785E+02
  15.730  0.1242E+01  0.1787E+02
  15.740  0.1252E+01  0.1788E+02
  15.750  0.1260E+01  0.1789E+02
  15.760  0.1269E+01  0.1790E+02
  15.770  0.1277E+01  0.1792E+02
  15.780  0.1285E+01  0.1793E+02
  15.790  0.1294E+01  0.1794E+02
  15.800  0.1303E+01  0.1796E+02
  15.810  0.1314E+01  0.1797E+02
  15.820  0.1325E+01  0.1798E+02
  15.830  0.1337E+01  0.1800E+02
  15.840  0.1351E+01  0.1801E+02
  15.850  0.1367E+01  0.1802E+02
  15.860  0.1384E+01  0.1804E+02
  15.870  0.1403E+01  0.1805E+02
  15.880  0.1422E+01  0.1806E+02
  15.890  0.1443E+01  0.1808E+02
  15.900  0.1464E+01  0.1809E+02
  15.910  0.1486E+01  0.1811E+02
  15.920  0.1506E+01  0.1812E+02
  15.930  0.1526E+01  0.1814E+02
  15.940  0.1543E+01  0.1815E+02
  15.950  0.1559E+01  0.1817E+02
  15.960  0.1571E+01  0.1819E+02
  15.970  0.1580E+01  0.1820E+02
  15.980  0.1586E+01  0.1822E+02
  15.990  0.1587E+01  0.1823E+02
  16.000  0.1585E+01  0.1825E+02
  16.010  0.1578E+01  0.1826E+02
  16.020  0.1567E+01  0.1828E+02
  16.030  0.1553E+01  0.1830E+02
  16.040  0.1536E+01  0.1831E+02
  16.050  0.1516E+01  0.1833E+02
  16.060  0.1494E+01  0.1834E+02
  16.070  0.1471E+01  0.1836E+02
  16.080  0.1446E+01  0.1837E+02
  16.090  0.1422E+01  0.1838E+02
  16.100  0.1398E+01  0.1840E+02
  16.110  0.1375E+01  0.1841E+02
  16.120  0.1353E+01  0.1843E+02
  16.130  0.1333E+01  0.1844E+02
  16.140  0.1315E+01  0.1845E+02
  16.150  0.1299E+01  0.1847E+02
  16.160  0.1286E+01  0.1848E+02
  16.170  0.1275E+01  0.1849E+02
  16.180  0.1266E+01  0.1850E+02
  16.190  0.1259E+01  0.1852E+02
  16.200  0.1253E+01  0.1853E+02
  16.210  0.1249E+01  0.1854E+02
  16.220  0.1246E+01  0.1855E+02
  16.230  0.1244E+01  0.1857E+02
  16.240  0.1242E+01  0.1858E+02
  16.250  0.1240E+01  0.1859E+02
  16.260  0.1238E+01  0.1860E+02
  16.270  0.1235E+01  0.1862E+02
  16.280  0.1232E+01  0.1863E+02
  16.290  0.1227E+01  0.1864E+02
  16.300  0.1222E+01  0.1865E+02
  16.310  0.1215E+01  0.1866E+02
  16.320  0.1208E+01  0.1868E+02
  16.330  0.1201E+01  0.1869E+02
  16.340  0.1193E+01  0.1870E+02
  16.350  0.1185E+01  0.1871E+02
  16.360  0.1178E+01  0.1872E+02
  16.370  0.1172E+01  0.1874E+02
  16.380  0.1167E+01  0.1875E+02
  16.390  0.1164E+01  0.1876E+02
  16.400  0.1164E+01  0.1877E+02
  16.410  0.1166E+01  0.1878E+02
  16.420  0.1170E+01  0.1879E+02
  16.430  0.1177E+01  0.1881E+02
  16.440  0.1188E+01  0.1882E+02
  16.450  0.1200E+01  0.1883E+02
  16.460  0.1216E+01  0.1884E+02
  16.470  0.1233E+01  0.1885E+02
  16.480  0.1252E+01  0.1887E+02
  16.490  0.1273E+01  0.1888E+02
  16.500  0.1295E+01  0.1889E+02
  16.510  0.1317E+01  0.1891E+02
  16.520  0.1340E+01  0.1892E+02
  16.530  0.1362E+01  0.1893E+02
  16.540  0.1384E+01  0.1895E+02
  16.550  0.1404E+01  0.1896E+02
  16.560  0.1423E+01  0.1898E+02
  16.570  0.1440E+01  0.1899E+02
  16.580  0.1455E+01  0.1900E+02
  16.590  0.1467E+01  0.1902E+02
  16.600  0.1477E+01  0.1903E+02
  16.610  0.1485E+01  0.1905E+02
  16.620  0.1490E+01  0.1906E+02
  16.630  0.1492E+01  0.1908E+02
  16.640  0.1491E+01  0.1909E+02
  16.650  0.1488E+01  0.1911E+02
  16.660  0.1481E+01  0.1912E+02
  16.670  0.1472E+01  0.1914E+02
  16.680  0.1461E+01  0.1915E+02
  16.690  0.1447E+01  0.1917E+02
  16.700  0.1432E+01  0.1918E+02
  16.710  0.1414E+01  0.1920E+02
  16.720  0.1395E+01  0.1921E+02
  16.730  0.1375E+01  0.1922E+02
  16.740  0.1354E+01  0.1924E+02
  16.750  0.1332E+01  0.1925E+02
  16.760  0.1310E+01  0.1926E+02
  16.770  0.1287E+01  0.1928E+02
  16.780  0.1264E+01  0.1929E+02
  16.790  0.1242E+01  0.1930E+02
  16.800  0.1220E+01  0.1931E+02
  16.810  0.1198E+01  0.1932E+02
  16.820  0.1176E+01  0.1934E+02
  16.830  0.1155E+01  0.1935E+02
  16.840  0.1135E+01  0.1936E+02
  16.850  0.1116E+01  0.1937E+02
  16.860  0.1098E+01  0.1938E+02
  16.870  0.1081E+01  0.1939E+02
  16.880  0.1065E+01  0.1940E+02
  16.890  0.1050E+01  0.1941E+02
  16.900  0.1037E+01  0.1942E+02
  16.910  0.1025E+01  0.1943E+02
  16.920  0.1016E+01  0.1944E+02
  16.930  0.1008E+01  0.1945E+02
  16.940  0.1002E+01  0.1946E+02
  16.950  0.9981E+00  0.1947E+02
  16.960  0.9960E+00  0.1948E+02
  16.970  0.9958E+00  0.1949E+02
  16.980  0.9974E+00  0.1950E+02
  16.990  0.1001E+01  0.1951E+02
  17.000  0.1005E+01  0.1952E+02
  17.010  0.1011E+01  0.1953E+02
  17.020  0.1018E+01  0.1954E+02
  17.030  0.1025E+01  0.1956E+02
  17.040  0.1033E+01  0.1957E+02
  17.050  0.1042E+01  0.1958E+02
  17.060  0.1051E+01  0.1959E+02
  17.070  0.1060E+01  0.1960E+02
  17.080  0.1069E+01  0.1961E+02
  17.090  0.1077E+01  0.1962E+02
  17.100  0.1086E+01  0.1963E+02
  17.110  0.1095E+01  0.1964E+02
  17.120  0.1104E+01  0.1965E+02
  17.130  0.1113E+01  0.1966E+02
  17.140  0.1122E+01  0.1967E+02
  17.150  0.1131E+01  0.1968E+02
  17.160  0.1142E+01  0.1970E+02
  17.170  0.1153E+01  0.1971E+02
  17.180  0.1165E+01  0.1972E+02
  17.190  0.1178E+01  0.1973E+02
  17.200  0.1192E+01  0.1974E+02
  17.210  0.1207E+01  0.1976E+02
  17.220  0.1222E+01  0.1977E+02
  17.230  0.1239E+01  0.1978E+02
  17.240  0.1256E+01  0.1979E+02
  17.250  0.1274E+01  0.1981E+02
  17.260  0.1291E+01  0.1982E+02
  17.270  0.1308E+01  0.1983E+02
  17.280  0.1325E+01  0.1984E+02
  17.290  0.1341E+01  0.1986E+02
  17.300  0.1355E+01  0.1987E+02
  17.310  0.1367E+01  0.1989E+02
  17.320  0.1377E+01  0.1990E+02
  17.330  0.1384E+01  0.1991E+02
  17.340  0.1389E+01  0.1993E+02
  17.350  0.1390E+01  0.1994E+02
  17.360  0.1388E+01  0.1995E+02
  17.370  0.1384E+01  0.1997E+02
  17.380  0.1376E+01  0.1998E+02
  17.390  0.1365E+01  0.2000E+02
  17.400  0.1351E+01  0.2001E+02
  17.410  0.1335E+01  0.2002E+02
  17.420  0.1317E+01  0.2004E+02
  17.430  0.1297E+01  0.2005E+02
  17.440  0.1276E+01  0.2006E+02
  17.450  0.1254E+01  0.2007E+02
  17.460  0.1232E+01  0.2009E+02
  17.470  0.1211E+01  0.2010E+02
  17.480  0.1190E+01  0.2011E+02
  17.490  0.1171E+01  0.2012E+02
  17.500  0.1154E+01  0.2013E+02
  17.510  0.1139E+01  0.2014E+02
  17.520  0.1127E+01  0.2016E+02
  17.530  0.1117E+01  0.2017E+02
  17.540  0.1110E+01  0.2018E+02
  17.550  0.1106E+01  0.2019E+02
  17.560  0.1105E+01  0.2020E+02
  17.570  0.1106E+01  0.2021E+02
  17.580  0.1110E+01  0.2022E+02
  17.590  0.1117E+01  0.2023E+02
  17.600  0.1125E+01  0.2025E+02
  17.610  0.1136E+01  0.2026E+02
  17.620  0.1148E+01  0.2027E+02
  17.630  0.1161E+01  0.2028E+02
  17.640  0.1175E+01  0.2029E+02
  17.650  0.1189E+01  0.2030E+02
  17.660  0.1204E+01  0.2032E+02
  17.670  0.1218E+01  0.2033E+02
  17.680  0.1232E+01  0.2034E+02
  17.690  0.1246E+01  0.2035E+02
  17.700  0.1258E+01  0.2036E+02
  17.710  0.1269E+01  0.2038E+02
  17.720  0.1278E+01  0.2039E+02
  17.730  0.1285E+01  0.2040E+02
  17.740  0.1291E+01  0.2042E+02
  17.750  0.1294E+01  0.2043E+02
  17.760  0.1295E+01  0.2044E+02
  17.770  0.1293E+01  0.2045E+02
  17.780  0.1290E+01  0.2047E+02
  17.790  0.1284E+01  0.2048E+02
  17.800  0.1277E+01  0.2049E+02
  17.810  0.1268E+01  0.2051E+02
  17.820  0.1259E+01  0.2052E+02
  17.830  0.1249E+01  0.2053E+02
  17.840  0.1238E+01  0.2054E+02
  17.850  0.1229E+01  0.2056E+02
  17.860  0.1220E+01  0.2057E+02
  17.870  0.1212E+01  0.2058E+02
  17.880  0.1207E+01  0.2059E+02
  17.890  0.1203E+01  0.2060E+02
  17.900  0.1202E+01  0.2062E+02
  17.910  0.1204E+01  0.2063E+02
  17.920  0.1207E+01  0.2064E+02
  17.930  0.1214E+01  0.2065E+02
  17.940  0.1222E+01  0.2066E+02
  17.950  0.1232E+01  0.2068E+02
  17.960  0.1244E+01  0.2069E+02
  17.970  0.1257E+01  0.2070E+02
  17.980  0.1270E+01  0.2071E+02
  17.990  0.1283E+01  0.2073E+02
  18.000  0.1296E+01  0.2074E+02
  18.010  0.1309E+01  0.2075E+02
  18.020  0.1320E+01  0.2077E+02
  18.030  0.1329E+01  0.2078E+02
  18.040  0.1337E+01  0.2079E+02
  18.050  0.1344E+01  0.2081E+02
  18.060  0.1348E+01  0.2082E+02
  18.070  0.1350E+01  0.2083E+02
  18.080  0.1350E+01  0.2085E+02
  18.090  0.1349E+01  0.2086E+02
  18.100  0.1345E+01  0.2087E+02
  18.110  0.1341E+01  0.2089E+02
  18.120  0.1334E+01  0.2090E+02
  18.130  0.1327E+01  0.2091E+02
  18.140  0.1319E+01  0.2093E+02
  18.150  0.1311E+01  0.2094E+02
  18.160  0.1302E+01  0.2095E+02
  18.170  0.1294E+01  0.2097E+02
  18.180  0.1285E+01  0.2098E+02
  18.190  0.1277E+01  0.2099E+02
  18.200  0.1269E+01  0.2100E+02
  18.210  0.1262E+01  0.2102E+02
  18.220  0.1255E+01  0.2103E+02
  18.230  0.1249E+01  0.2104E+02
  18.240  0.1244E+01  0.2105E+02
  18.250  0.1239E+01  0.2107E+02
  18.260  0.1235E+01  0.2108E+02
  18.270  0.1232E+01  0.2109E+02
  18.280  0.1228E+01  0.2110E+02
  18.290  0.1225E+01  0.2112E+02
  18.300  0.1221E+01  0.2113E+02
  18.310  0.1218E+01  0.2114E+02
  18.320  0.1214E+01  0.2115E+02
  18.330  0.1210E+01  0.2117E+02
  18.340  0.1206E+01  0.2118E+02
  18.350  0.1201E+01  0.2119E+02
  18.360  0.1197E+01  0.2120E+02
  18.370  0.1192E+01  0.2121E+02
  18.380  0.1187E+01  0.2123E+02
  18.390  0.1183E+01  0.2124E+02
  18.400  0.1180E+01  0.2125E+02
  18.410  0.1177E+01  0.2126E+02
  18.420  0.1176E+01  0.2127E+02
  18.430  0.1176E+01  0.2128E+02
  18.440  0.1178E+01  0.2130E+02
  18.450  0.1182E+01  0.2131E+02
  18.460  0.1188E+01  0.2132E+02
  18.470  0.1196E+01  0.2133E+02
  18.480  0.1206E+01  0.2134E+02
  18.490  0.1218E+01  0.2136E+02
  18.500  0.1232E+01  0.2137E+02
  18.510  0.1248E+01  0.2138E+02
  18.520  0.1265E+01  0.2139E+02
  18.530  0.1284E+01  0.2141E+02
  18.540  0.1303E+01  0.2142E+02
  18.550  0.1323E+01  0.2143E+02
  18.560  0.1343E+01  0.2145E+02
  18.570  0.1363E+01  0.2146E+02
  18.580  0.1383E+01  0.2147E+02
  18.590  0.1403E+01  0.2149E+02
  18.600  0.1422E+01  0.2150E+02
  18.610  0.1440E+01  0.2152E+02
  18.620  0.1458E+01  0.2153E+02
  18.630  0.1476E+01  0.2155E+02
  18.640  0.1493E+01  0.2156E+02
  18.650  0.1510E+01  0.2158E+02
  18.660  0.1527E+01  0.2159E+02
  18.670  0.1544E+01  0.2161E+02
  18.680  0.1561E+01  0.2162E+02
  18.690  0.1578E+01  0.2164E+02
  18.700  0.1595E+01  0.2165E+02
  18.710  0.1612E+01  0.2167E+02
  18.720  0.1629E+01  0.2169E+02
  18.730  0.1646E+01  0.2170E+02
  18.740  0.1663E+01  0.2172E+02
  18.750  0.1679E+01  0.2174E+02
  18.760  0.1694E+01  0.2175E+02
  18.770  0.1708E+01  0.2177E+02
  18.780  0.1721E+01  0.2179E+02
  18.790  0.1732E+01  0.2180E+02
  18.800  0.1741E+01  0.2182E+02
  18.810  0.1748E+01  0.2184E+02
  18.820  0.1752E+01  0.2186E+02
  18.830  0.1754E+01  0.2187E+02
  18.840  0.1754E+01  0.2189E+02
  18.850  0.1750E+01  0.2191E+02
  18.860  0.1745E+01  0.2193E+02
  18.870  0.1737E+01  0.2194E+02
  18.880  0.1726E+01  0.2196E+02
  18.890  0.1714E+01  0.2198E+02
  18.900  0.1701E+01  0.2200E+02
  18.910  0.1686E+01  0.2201E+02
  18.920  0.1670E+01  0.2203E+02
  18.930  0.1654E+01  0.2205E+02
  18.940  0.1638E+01  0.2206E+02
  18.950  0.1622E+01  0.2208E+02
  18.960  0.1607E+01  0.2209E+02
  18.970  0.1593E+01  0.2211E+02
  18.980  0.1581E+01  0.2213E+02
  18.990  0.1569E+01  0.2214E+02
  19.000  0.1559E+01  0.2216E+02
  19.010  0.1550E+01  0.2217E+02
  19.020  0.1543E+01  0.2219E+02
  19.030  0.1537E+01  0.2220E+02
  19.040  0.1532E+01  0.2222E+02
  19.050  0.1528E+01  0.2223E+02
  19.060  0.1524E+01  0.2225E+02
  19.070  0.1520E+01  0.2226E+02
  19.080  0.1517E+01  0.2228E+02
  19.090  0.1513E+01  0.2229E+02
  19.100  0.1509E+01  0.2231E+02
  19.110  0.1504E+01  0.2232E+02
  19.120  0.1498E+01  0.2234E+02
  19.130  0.1491E+01  0.2235E+02
  19.140  0.1484E+01  0.2237E+02
  19.150  0.1476E+01  0.2238E+02
  19.160  0.1467E+01  0.2240E+02
  19.170  0.1458E+01  0.2241E+02
  19.180  0.1449E+01  0.2243E+02
  19.190  0.1440E+01  0.2244E+02
  19.200  0.1431E+01  0.2246E+02
  19.210  0.1423E+01  0.2247E+02
  19.220  0.1416E+01  0.2249E+02
  19.230  0.1411E+01  0.2250E+02
  19.240  0.1406E+01  0.2251E+02
  19.250  0.1403E+01  0.2253E+02
  19.260  0.1402E+01  0.2254E+02
  19.270  0.1403E+01  0.2256E+02
  19.280  0.1405E+01  0.2257E+02
  19.290  0.1409E+01  0.2258E+02
  19.300  0.1414E+01  0.2260E+02
  19.310  0.1421E+01  0.2261E+02
  19.320  0.1429E+01  0.2263E+02
  19.330  0.1438E+01  0.2264E+02
  19.340  0.1449E+01  0.2265E+02
  19.350  0.1460E+01  0.2267E+02
  19.360  0.1472E+01  0.2268E+02
  19.370  0.1484E+01  0.2270E+02
  19.380  0.1497E+01  0.2271E+02
  19.390  0.1510E+01  0.2273E+02
  19.400  0.1523E+01  0.2274E+02
  19.410  0.1536E+01  0.2276E+02
  19.420  0.1549E+01  0.2278E+02
  19.430  0.1562E+01  0.2279E+02
  19.440  0.1574E+01  0.2281E+02
  19.450  0.1586E+01  0.2282E+02
  19.460  0.1597E+01  0.2284E+02
  19.470  0.1607E+01  0.2285E+02
  19.480  0.1617E+01  0.2287E+02
  19.490  0.1626E+01  0.2289E+02
  19.500  0.1633E+01  0.2290E+02
  19.510  0.1640E+01  0.2292E+02
  19.520  0.1646E+01  0.2294E+02
  19.530  0.1650E+01  0.2295E+02
  19.540  0.1652E+01  0.2297E+02
  19.550  0.1653E+01  0.2299E+02
  19.560  0.1652E+01  0.2300E+02
  19.570  0.1649E+01  0.2302E+02
  19.580  0.1645E+01  0.2304E+02
  19.590  0.1638E+01  0.2305E+02
  19.600  0.1629E+01  0.2307E+02
  19.610  0.1617E+01  0.2308E+02
  19.620  0.1604E+01  0.2310E+02
  19.630  0.1589E+01  0.2312E+02
  19.640  0.1572E+01  0.2313E+02
  19.650  0.1554E+01  0.2315E+02
  19.660  0.1534E+01  0.2316E+02
  19.670  0.1513E+01  0.2318E+02
  19.680  0.1491E+01  0.2319E+02
  19.690  0.1469E+01  0.2321E+02
  19.700  0.1447E+01  0.2322E+02
  19.710  0.1424E+01  0.2324E+02
  19.720  0.1402E+01  0.2325E+02
  19.730  0.1380E+01  0.2326E+02
  19.740  0.1360E+01  0.2328E+02
  19.750  0.1340E+01  0.2329E+02
  19.760  0.1321E+01  0.2330E+02
  19.770  0.1304E+01  0.2332E+02
  19.780  0.1287E+01  0.2333E+02
  19.790  0.1273E+01  0.2334E+02
  19.800  0.1260E+01  0.2336E+02
  19.810  0.1248E+01  0.2337E+02
  19.820  0.1238E+01  0.2338E+02
  19.830  0.1229E+01  0.2339E+02
  19.840  0.1222E+01  0.2340E+02
  19.850  0.1216E+01  0.2342E+02
  19.860  0.1213E+01  0.2343E+02
  19.870  0.1211E+01  0.2344E+02
  19.880  0.1210E+01  0.2345E+02
  19.890  0.1211E+01  0.2347E+02
  19.900  0.1215E+01  0.2348E+02
  19.910  0.1220E+01  0.2349E+02
  19.920  0.1227E+01  0.2350E+02
  19.930  0.1235E+01  0.2351E+02
  19.940  0.1246E+01  0.2353E+02
  19.950  0.1258E+01  0.2354E+02
  19.960  0.1272E+01  0.2355E+02
  19.970  0.1287E+01  0.2356E+02
  19.980  0.1304E+01  0.2358E+02
  19.990  0.1321E+01  0.2359E+02
  20.000  0.1340E+01  0.2360E+02
  20.010  0.1359E+01  0.2362E+02
  20.020  0.1378E+01  0.2363E+02
  20.030  0.1398E+01  0.2365E+02
  20.040  0.1417E+01  0.2366E+02
  20.050  0.1436E+01  0.2367E+02
  20.060  0.1453E+01  0.2369E+02
  20.070  0.1470E+01  0.2370E+02
  20.080  0.1487E+01  0.2372E+02
  20.090  0.1502E+01  0.2373E+02
  20.100  0.1516E+01  0.2375E+02
  20.110  0.1529E+01  0.2376E+02
  20.120  0.1541E+01  0.2378E+02
  20.130  0.1552E+01  0.2379E+02
  20.140  0.1563E+01  0.2381E+02
  20.150  0.1574E+01  0.2383E+02
  20.160  0.1584E+01  0.2384E+02
  20.170  0.1595E+01  0.2386E+02
  20.180  0.1605E+01  0.2387E+02
  20.190  0.1616E+01  0.2389E+02
  20.200  0.1627E+01  0.2391E+02
  20.210  0.1638E+01  0.2392E+02
  20.220  0.1649E+01  0.2394E+02
  20.230  0.1661E+01  0.2396E+02
  20.240  0.1673E+01  0.2397E+02
  20.250  0.1685E+01  0.2399E+02
  20.260  0.1697E+01  0.2401E+02
  20.270  0.1708E+01  0.2402E+02
  20.280  0.1719E+01  0.2404E+02
  20.290  0.1728E+01  0.2406E+02
  20.300  0.1737E+01  0.2408E+02
  20.310  0.1745E+01  0.2409E+02
  20.320  0.1751E+01  0.2411E+02
  20.330  0.1756E+01  0.2413E+02
  20.340  0.1760E+01  0.2415E+02
  20.350  0.1762E+01  0.2416E+02
  20.360  0.1763E+01  0.2418E+02
  20.370  0.1762E+01  0.2420E+02
  20.380  0.1761E+01  0.2422E+02
  20.390  0.1759E+01  0.2423E+02
  20.400  0.1756E+01  0.2425E+02
  20.410  0.1753E+01  0.2427E+02
  20.420  0.1749E+01  0.2429E+02
  20.430  0.1746E+01  0.2430E+02
  20.440  0.1743E+01  0.2432E+02
  20.450  0.1741E+01  0.2434E+02
  20.460  0.1739E+01  0.2436E+02
  20.470  0.1738E+01  0.2437E+02
  20.480  0.1738E+01  0.2439E+02
  20.490  0.1739E+01  0.2441E+02
  20.500  0.1740E+01  0.2443E+02
  20.510  0.1742E+01  0.2444E+02
  20.520  0.1745E+01  0.2446E+02
  20.530  0.1748E+01  0.2448E+02
  20.540  0.1751E+01  0.2450E+02
  20.550  0.1755E+01  0.2451E+02
  20.560  0.1759E+01  0.2453E+02
  20.570  0.1763E+01  0.2455E+02
  20.580  0.1767E+01  0.2457E+02
  20.590  0.1771E+01  0.2458E+02
  20.600  0.1775E+01  0.2460E+02
  20.610  0.1779E+01  0.2462E+02
  20.620  0.1783E+01  0.2464E+02
  20.630  0.1787E+01  0.2465E+02
  20.640  0.1791E+01  0.2467E+02
  20.650  0.1796E+01  0.2469E+02
  20.660  0.1800E+01  0.2471E+02
  20.670  0.1805E+01  0.2473E+02
  20.680  0.1809E+01  0.2474E+02
  20.690  0.1814E+01  0.2476E+02
  20.700  0.1817E+01  0.2478E+02
  20.710  0.1821E+01  0.2480E+02
  20.720  0.1823E+01  0.2482E+02
  20.730  0.1824E+01  0.2484E+02
  20.740  0.1823E+01  0.2485E+02
  20.750  0.1820E+01  0.2487E+02
  20.760  0.1815E+01  0.2489E+02
  20.770  0.1807E+01  0.2491E+02
  20.780  0.1797E+01  0.2493E+02
  20.790  0.1784E+01  0.2494E+02
  20.800  0.1768E+01  0.2496E+02
  20.810  0.1749E+01  0.2498E+02
  20.820  0.1728E+01  0.2500E+02
  20.830  0.1705E+01  0.2501E+02
  20.840  0.1680E+01  0.2503E+02
  20.850  0.1654E+01  0.2505E+02
  20.860  0.1628E+01  0.2506E+02
  20.870  0.1601E+01  0.2508E+02
  20.880  0.1576E+01  0.2509E+02
  20.890  0.1551E+01  0.2511E+02
  20.900  0.1528E+01  0.2513E+02
  20.910  0.1507E+01  0.2514E+02
  20.920  0.1489E+01  0.2516E+02
  20.930  0.1473E+01  0.2517E+02
  20.940  0.1459E+01  0.2519E+02
  20.950  0.1447E+01  0.2520E+02
  20.960  0.1438E+01  0.2521E+02
  20.970  0.1431E+01  0.2523E+02
  20.980  0.1425E+01  0.2524E+02
  20.990  0.1420E+01  0.2526E+02
  21.000  0.1416E+01  0.2527E+02
  21.010  0.1413E+01  0.2528E+02
  21.020  0.1409E+01  0.2530E+02
  21.030  0.1404E+01  0.2531E+02
  21.040  0.1399E+01  0.2533E+02
  21.050  0.1393E+01  0.2534E+02
  21.060  0.1386E+01  0.2535E+02
  21.070  0.1377E+01  0.2537E+02
  21.080  0.1368E+01  0.2538E+02
  21.090  0.1357E+01  0.2540E+02
  21.100  0.1346E+01  0.2541E+02
  21.110  0.1334E+01  0.2542E+02
  21.120  0.1321E+01  0.2544E+02
  21.130  0.1309E+01  0.2545E+02
  21.140  0.1296E+01  0.2546E+02
  21.150  0.1285E+01  0.2547E+02
  21.160  0.1274E+01  0.2549E+02
  21.170  0.1264E+01  0.2550E+02
  21.180  0.1256E+01  0.2551E+02
  21.190  0.1249E+01  0.2553E+02
  21.200  0.1244E+01  0.2554E+02
  21.210  0.1241E+01  0.2555E+02
  21.220  0.1240E+01  0.2556E+02
  21.230  0.1241E+01  0.2557E+02
  21.240  0.1244E+01  0.2559E+02
  21.250  0.1249E+01  0.2560E+02
  21.260  0.1255E+01  0.2561E+02
  21.270  0.1263E+01  0.2563E+02
  21.280  0.1273E+01  0.2564E+02
  21.290  0.1283E+01  0.2565E+02
  21.300  0.1294E+01  0.2566E+02
  21.310  0.1305E+01  0.2568E+02
  21.320  0.1316E+01  0.2569E+02
  21.330  0.1326E+01  0.2570E+02
  21.340  0.1336E+01  0.2572E+02
  21.350  0.1345E+01  0.2573E+02
  21.360  0.1353E+01  0.2574E+02
  21.370  0.1359E+01  0.2576E+02
  21.380  0.1364E+01  0.2577E+02
  21.390  0.1367E+01  0.2578E+02
  21.400  0.1369E+01  0.2580E+02
  21.410  0.1369E+01  0.2581E+02
  21.420  0.1368E+01  0.2583E+02
  21.430  0.1366E+01  0.2584E+02
  21.440  0.1364E+01  0.2585E+02
  21.450  0.1361E+01  0.2587E+02
  21.460  0.1358E+01  0.2588E+02
  21.470  0.1356E+01  0.2589E+02
  21.480  0.1355E+01  0.2591E+02
  21.490  0.1354E+01  0.2592E+02
  21.500  0.1355E+01  0.2593E+02
  21.510  0.1357E+01  0.2595E+02
  21.520  0.1360E+01  0.2596E+02
  21.530  0.1365E+01  0.2597E+02
  21.540  0.1371E+01  0.2599E+02
  21.550  0.1378E+01  0.2600E+02
  21.560  0.1386E+01  0.2602E+02
  21.570  0.1394E+01  0.2603E+02
  21.580  0.1402E+01  0.2604E+02
  21.590  0.1411E+01  0.2606E+02
  21.600  0.1419E+01  0.2607E+02
  21.610  0.1426E+01  0.2609E+02
  21.620  0.1433E+01  0.2610E+02
  21.630  0.1439E+01  0.2612E+02
  21.640  0.1444E+01  0.2613E+02
  21.650  0.1449E+01  0.2614E+02
  21.660  0.1453E+01  0.2616E+02
  21.670  0.1457E+01  0.2617E+02
  21.680  0.1460E+01  0.2619E+02
  21.690  0.1465E+01  0.2620E+02
  21.700  0.1470E+01  0.2622E+02
  21.710  0.1476E+01  0.2623E+02
  21.720  0.1483E+01  0.2625E+02
  21.730  0.1493E+01  0.2626E+02
  21.740  0.1504E+01  0.2628E+02
  21.750  0.1516E+01  0.2629E+02
  21.760  0.1531E+01  0.2631E+02
  21.770  0.1548E+01  0.2632E+02
  21.780  0.1567E+01  0.2634E+02
  21.790  0.1586E+01  0.2635E+02
  21.800  0.1607E+01  0.2637E+02
  21.810  0.1629E+01  0.2639E+02
  21.820  0.1650E+01  0.2640E+02
  21.830  0.1671E+01  0.2642E+02
  21.840  0.1691E+01  0.2644E+02
  21.850  0.1709E+01  0.2645E+02
  21.860  0.1725E+01  0.2647E+02
  21.870  0.1739E+01  0.2649E+02
  21.880  0.1750E+01  0.2651E+02
  21.890  0.1758E+01  0.2652E+02
  21.900  0.1762E+01  0.2654E+02
  21.910  0.1764E+01  0.2656E+02
  21.920  0.1762E+01  0.2658E+02
  21.930  0.1757E+01  0.2659E+02
  21.940  0.1749E+01  0.2661E+02
  21.950  0.1739E+01  0.2663E+02
  21.960  0.1726E+01  0.2665E+02
  21.970  0.1712E+01  0.2666E+02
  21.980  0.1697E+01  0.2668E+02
  21.990  0.1681E+01  0.2670E+02
  22.000  0.1664E+01  0.2671E+02
  22.010  0.1648E+01  0.2673E+02
  22.020  0.1632E+01  0.2675E+02
  22.030  0.1616E+01  0.2676E+02
  22.040  0.1601E+01  0.2678E+02
  22.050  0.1586E+01  0.2679E+02
  22.060  0.1573E+01  0.2681E+02
  22.070  0.1561E+01  0.2683E+02
  22.080  0.1550E+01  0.2684E+02
  22.090  0.1540E+01  0.2686E+02
  22.100  0.1532E+01  0.2687E+02
  22.110  0.1524E+01  0.2689E+02
  22.120  0.1517E+01  0.2690E+02
  22.130  0.1511E+01  0.2692E+02
  22.140  0.1506E+01  0.2693E+02
  22.150  0.1502E+01  0.2695E+02
  22.160  0.1498E+01  0.2696E+02
  22.170  0.1495E+01  0.2698E+02
  22.180  0.1493E+01  0.2699E+02
  22.190  0.1491E+01  0.2701E+02
  22.200  0.1489E+01  0.2702E+02
  22.210  0.1488E+01  0.2704E+02
  22.220  0.1486E+01  0.2705E+02
  22.230  0.1486E+01  0.2707E+02
  22.240  0.1485E+01  0.2708E+02
  22.250  0.1484E+01  0.2710E+02
  22.260  0.1484E+01  0.2711E+02
  22.270  0.1483E+01  0.2713E+02
  22.280  0.1483E+01  0.2714E+02
  22.290  0.1482E+01  0.2716E+02
  22.300  0.1482E+01  0.2717E+02
  22.310  0.1481E+01  0.2719E+02
  22.320  0.1479E+01  0.2720E+02
  22.330  0.1477E+01  0.2722E+02
  22.340  0.1474E+01  0.2723E+02
  22.350  0.1470E+01  0.2724E+02
  22.360  0.1465E+01  0.2726E+02
  22.370  0.1459E+01  0.2727E+02
  22.380  0.1452E+01  0.2729E+02
  22.390  0.1443E+01  0.2730E+02
  22.400  0.1432E+01  0.2732E+02
  22.410  0.1420E+01  0.2733E+02
  22.420  0.1407E+01  0.2735E+02
  22.430  0.1393E+01  0.2736E+02
  22.440  0.1377E+01  0.2737E+02
  22.450  0.1361E+01  0.2739E+02
  22.460  0.1344E+01  0.2740E+02
  22.470  0.1326E+01  0.2741E+02
  22.480  0.1309E+01  0.2743E+02
  22.490  0.1291E+01  0.2744E+02
  22.500  0.1275E+01  0.2745E+02
  22.510  0.1259E+01  0.2746E+02
  22.520  0.1244E+01  0.2748E+02
  22.530  0.1231E+01  0.2749E+02
  22.540  0.1219E+01  0.2750E+02
  22.550  0.1208E+01  0.2751E+02
  22.560  0.1200E+01  0.2753E+02
  22.570  0.1193E+01  0.2754E+02
  22.580  0.1188E+01  0.2755E+02
  22.590  0.1185E+01  0.2756E+02
  22.600  0.1184E+01  0.2757E+02
  22.610  0.1184E+01  0.2759E+02
  22.620  0.1186E+01  0.2760E+02
  22.630  0.1189E+01  0.2761E+02
  22.640  0.1193E+01  0.2762E+02
  22.650  0.1199E+01  0.2763E+02
  22.660  0.1205E+01  0.2764E+02
  22.670  0.1212E+01  0.2766E+02
  22.680  0.1219E+01  0.2767E+02
  22.690  0.1226E+01  0.2768E+02
  22.700  0.1234E+01  0.2769E+02
  22.710  0.1241E+01  0.2771E+02
  22.720  0.1247E+01  0.2772E+02
  22.730  0.1253E+01  0.2773E+02
  22.740  0.1257E+01  0.2774E+02
  22.750  0.1260E+01  0.2776E+02
  22.760  0.1262E+01  0.2777E+02
  22.770  0.1262E+01  0.2778E+02
  22.780  0.1261E+01  0.2779E+02
  22.790  0.1258E+01  0.2781E+02
  22.800  0.1254E+01  0.2782E+02
  22.810  0.1249E+01  0.2783E+02
  22.820  0.1244E+01  0.2784E+02
  22.830  0.1237E+01  0.2786E+02
  22.840  0.1230E+01  0.2787E+02
  22.850  0.1224E+01  0.2788E+02
  22.860  0.1218E+01  0.2789E+02
  22.870  0.1213E+01  0.2791E+02
  22.880  0.1209E+01  0.2792E+02
  22.890  0.1206E+01  0.2793E+02
  22.900  0.1205E+01  0.2794E+02
  22.910  0.1206E+01  0.2795E+02
  22.920  0.1208E+01  0.2797E+02
  22.930  0.1213E+01  0.2798E+02
  22.940  0.1219E+01  0.2799E+02
  22.950  0.1227E+01  0.2800E+02
  22.960  0.1237E+01  0.2801E+02
  22.970  0.1248E+01  0.2803E+02
  22.980  0.1261E+01  0.2804E+02
  22.990  0.1274E+01  0.2805E+02
  23.000  0.1289E+01  0.2807E+02
  23.010  0.1303E+01  0.2808E+02
  23.020  0.1318E+01  0.2809E+02
  23.030  0.1334E+01  0.2811E+02
  23.040  0.1349E+01  0.2812E+02
  23.050  0.1363E+01  0.2813E+02
  23.060  0.1377E+01  0.2815E+02
  23.070  0.1390E+01  0.2816E+02
  23.080  0.1402E+01  0.2817E+02
  23.090  0.1412E+01  0.2819E+02
  23.100  0.1422E+01  0.2820E+02
  23.110  0.1429E+01  0.2822E+02
  23.120  0.1435E+01  0.2823E+02
  23.130  0.1440E+01  0.2825E+02
  23.140  0.1443E+01  0.2826E+02
  23.150  0.1444E+01  0.2827E+02
  23.160  0.1444E+01  0.2829E+02
  23.170  0.1442E+01  0.2830E+02
  23.180  0.1439E+01  0.2832E+02
  23.190  0.1435E+01  0.2833E+02
  23.200  0.1430E+01  0.2835E+02
  23.210  0.1425E+01  0.2836E+02
  23.220  0.1420E+01  0.2837E+02
  23.230  0.1414E+01  0.2839E+02
  23.240  0.1408E+01  0.2840E+02
  23.250  0.1402E+01  0.2842E+02
  23.260  0.1397E+01  0.2843E+02
  23.270  0.1391E+01  0.2844E+02
  23.280  0.1387E+01  0.2846E+02
  23.290  0.1382E+01  0.2847E+02
  23.300  0.1378E+01  0.2849E+02
  23.310  0.1375E+01  0.2850E+02
  23.320  0.1372E+01  0.2851E+02
  23.330  0.1369E+01  0.2853E+02
  23.340  0.1366E+01  0.2854E+02
  23.350  0.1364E+01  0.2855E+02
  23.360  0.1362E+01  0.2857E+02
  23.370  0.1360E+01  0.2858E+02
  23.380  0.1357E+01  0.2860E+02
  23.390  0.1355E+01  0.2861E+02
  23.400  0.1353E+01  0.2862E+02
  23.410  0.1350E+01  0.2864E+02
  23.420  0.1348E+01  0.2865E+02
  23.430  0.1345E+01  0.2866E+02
  23.440  0.1341E+01  0.2868E+02
  23.450  0.1338E+01  0.2869E+02
  23.460  0.1334E+01  0.2870E+02
  23.470  0.1329E+01  0.2872E+02
  23.480  0.1324E+01  0.2873E+02
  23.490  0.1318E+01  0.2874E+02
  23.500  0.1312E+01  0.2876E+02
  23.510  0.1304E+01  0.2877E+02
  23.520  0.1297E+01  0.2878E+02
  23.530  0.1289E+01  0.2879E+02
  23.540  0.1280E+01  0.2881E+02
  23.550  0.1271E+01  0.2882E+02
  23.560  0.1261E+01  0.2883E+02
  23.570  0.1252E+01  0.2885E+02
  23.580  0.1242E+01  0.2886E+02
  23.590  0.1233E+01  0.2887E+02
  23.600  0.1224E+01  0.2888E+02
  23.610  0.1215E+01  0.2889E+02
  23.620  0.1208E+01  0.2891E+02
  23.630  0.1201E+01  0.2892E+02
  23.640  0.1196E+01  0.2893E+02
  23.650  0.1192E+01  0.2894E+02
  23.660  0.1189E+01  0.2895E+02
  23.670  0.1187E+01  0.2897E+02
  23.680  0.1186E+01  0.2898E+02
  23.690  0.1187E+01  0.2899E+02
  23.700  0.1188E+01  0.2900E+02
  23.710  0.1190E+01  0.2901E+02
  23.720  0.1192E+01  0.2903E+02
  23.730  0.1195E+01  0.2904E+02
  23.740  0.1198E+01  0.2905E+02
  23.750  0.1201E+01  0.2906E+02
  23.760  0.1204E+01  0.2907E+02
  23.770  0.1206E+01  0.2909E+02
  23.780  0.1207E+01  0.2910E+02
  23.790  0.1208E+01  0.2911E+02
  23.800  0.1208E+01  0.2912E+02
  23.810  0.1207E+01  0.2913E+02
  23.820  0.1206E+01  0.2915E+02
  23.830  0.1203E+01  0.2916E+02
  23.840  0.1200E+01  0.2917E+02
  23.850  0.1195E+01  0.2918E+02
  23.860  0.1190E+01  0.2919E+02
  23.870  0.1184E+01  0.2921E+02
  23.880  0.1176E+01  0.2922E+02
  23.890  0.1168E+01  0.2923E+02
  23.900  0.1159E+01  0.2924E+02
  23.910  0.1148E+01  0.2925E+02
  23.920  0.1136E+01  0.2926E+02
  23.930  0.1123E+01  0.2927E+02
  23.940  0.1109E+01  0.2929E+02
  23.950  0.1093E+01  0.2930E+02
  23.960  0.1076E+01  0.2931E+02
  23.970  0.1058E+01  0.2932E+02
  23.980  0.1039E+01  0.2933E+02
  23.990  0.1018E+01  0.2934E+02
  24.000  0.9965E+00  0.2935E+02
  24.010  0.9742E+00  0.2936E+02
  24.020  0.9515E+00  0.2937E+02
  24.030  0.9285E+00  0.2938E+02
  24.040  0.9054E+00  0.2939E+02
  24.050  0.8826E+00  0.2940E+02
  24.060  0.8603E+00  0.2940E+02
  24.070  0.8386E+00  0.2941E+02
  24.080  0.8178E+00  0.2942E+02
  24.090  0.7979E+00  0.2943E+02
  24.100  0.7792E+00  0.2944E+02
  24.110  0.7615E+00  0.2944E+02
  24.120  0.7449E+00  0.2945E+02
  24.130  0.7293E+00  0.2946E+02
  24.140  0.7146E+00  0.2947E+02
  24.150  0.7007E+00  0.2947E+02
  24.160  0.6875E+00  0.2948E+02
  24.170  0.6748E+00  0.2949E+02
  24.180  0.6625E+00  0.2949E+02
  24.190  0.6505E+00  0.2950E+02
  24.200  0.6387E+00  0.2951E+02
  24.210  0.6271E+00  0.2951E+02
  24.220  0.6156E+00  0.2952E+02
  24.230  0.6043E+00  0.2952E+02
  24.240  0.5932E+00  0.2953E+02
  24.250  0.5824E+00  0.2954E+02
  24.260  0.5719E+00  0.2954E+02
  24.270  0.5619E+00  0.2955E+02
  24.280  0.5524E+00  0.2955E+02
  24.290  0.5435E+00  0.2956E+02
  24.300  0.5352E+00  0.2956E+02
  24.310  0.5275E+00  0.2957E+02
  24.320  0.5205E+00  0.2957E+02
  24.330  0.5140E+00  0.2958E+02
  24.340  0.5082E+00  0.2958E+02
  24.350  0.5028E+00  0.2959E+02
  24.360  0.4978E+00  0.2959E+02
  24.370  0.4933E+00  0.2960E+02
  24.380  0.4890E+00  0.2960E+02
  24.390  0.4850E+00  0.2961E+02
  24.400  0.4812E+00  0.2961E+02
  24.410  0.4777E+00  0.2962E+02
  24.420  0.4743E+00  0.2962E+02
  24.430  0.4711E+00  0.2963E+02
  24.440  0.4682E+00  0.2963E+02
  24.450  0.4654E+00  0.2964E+02
  24.460  0.4628E+00  0.2964E+02
  24.470  0.4603E+00  0.2965E+02
  24.480  0.4581E+00  0.2965E+02
  24.490  0.4559E+00  0.2966E+02
  24.500  0.4538E+00  0.2966E+02
  24.510  0.4516E+00  0.2966E+02
  24.520  0.4493E+00  0.2967E+02
  24.530  0.4468E+00  0.2967E+02
  24.540  0.4440E+00  0.2968E+02
  24.550  0.4408E+00  0.2968E+02
  24.560  0.4371E+00  0.2969E+02
  24.570  0.4329E+00  0.2969E+02
  24.580  0.4282E+00  0.2970E+02
  24.590  0.4230E+00  0.2970E+02
  24.600  0.4173E+00  0.2970E+02
  24.610  0.4111E+00  0.2971E+02
  24.620  0.4046E+00  0.2971E+02
  24.630  0.3978E+00  0.2972E+02
  24.640  0.3910E+00  0.2972E+02
  24.650  0.3841E+00  0.2972E+02
  24.660  0.3773E+00  0.2973E+02
  24.670  0.3707E+00  0.2973E+02
  24.680  0.3644E+00  0.2974E+02
  24.690  0.3585E+00  0.2974E+02
  24.700  0.3529E+00  0.2974E+02
  24.710  0.3477E+00  0.2975E+02
  24.720  0.3428E+00  0.2975E+02
  24.730  0.3381E+00  0.2975E+02
  24.740  0.3335E+00  0.2976E+02
  24.750  0.3291E+00  0.2976E+02
  24.760  0.3245E+00  0.2976E+02
  24.770  0.3198E+00  0.2977E+02
  24.780  0.3148E+00  0.2977E+02
  24.790  0.3095E+00  0.2977E+02
  24.800  0.3038E+00  0.2977E+02
  24.810  0.2976E+00  0.2978E+02
  24.820  0.2909E+00  0.2978E+02
  24.830  0.2838E+00  0.2978E+02
  24.840  0.2763E+00  0.2979E+02
  24.850  0.2684E+00  0.2979E+02
  24.860  0.2603E+00  0.2979E+02
  24.870  0.2520E+00  0.2979E+02
  24.880  0.2436E+00  0.2980E+02
  24.890  0.2353E+00  0.2980E+02
  24.900  0.2270E+00  0.2980E+02
  24.910  0.2189E+00  0.2980E+02
  24.920  0.2111E+00  0.2981E+02
  24.930  0.2035E+00  0.2981E+02
  24.940  0.1963E+00  0.2981E+02
  24.950  0.1893E+00  0.2981E+02
  24.960  0.1828E+00  0.2981E+02
  24.970  0.1765E+00  0.2981E+02
  24.980  0.1706E+00  0.2982E+02
  24.990  0.1649E+00  0.2982E+02
  25.000  0.1594E+00  0.2982E+02
  25.010  0.1541E+00  0.2982E+02
  25.020  0.1489E+00  0.2982E+02
  25.030  0.1438E+00  0.2982E+02
  25.040  0.1386E+00  0.2983E+02
  25.050  0.1334E+00  0.2983E+02
  25.060  0.1281E+00  0.2983E+02
  25.070  0.1227E+00  0.2983E+02
  25.080  0.1172E+00  0.2983E+02
  25.090  0.1115E+00  0.2983E+02
  25.100  0.1056E+00  0.2983E+02
  25.110  0.9960E-01  0.2983E+02
  25.120  0.9349E-01  0.2983E+02
  25.130  0.8733E-01  0.2984E+02
  25.140  0.8116E-01  0.2984E+02
  25.150  0.7505E-01  0.2984E+02
  25.160  0.6909E-01  0.2984E+02
  25.170  0.6336E-01  0.2984E+02
  25.180  0.5795E-01  0.2984E+02
  25.190  0.5295E-01  0.2984E+02
  25.200  0.4845E-01  0.2984E+02
  25.210  0.4455E-01  0.2984E+02
  25.220  0.4133E-01  0.2984E+02
  25.230  0.3886E-01  0.2984E+02
  25.240  0.3722E-01  0.2984E+02
  25.250  0.3645E-01  0.2984E+02
  25.260  0.3660E-01  0.2984E+02
  25.270  0.3769E-01  0.2984E+02
  25.280  0.3974E-01  0.2984E+02
  25.290  0.4272E-01  0.2984E+02
  25.300  0.4662E-01  0.2984E+02
  25.310  0.5137E-01  0.2984E+02
  25.320  0.5690E-01  0.2985E+02
  25.330  0.6311E-01  0.2985E+02
  25.340  0.6988E-01  0.2985E+02
  25.350  0.7708E-01  0.2985E+02
  25.360  0.8455E-01  0.2985E+02
  25.370  0.9211E-01  0.2985E+02
  25.380  0.9960E-01  0.2985E+02
  25.390  0.1068E+00  0.2985E+02
  25.400  0.1136E+00  0.2985E+02
  25.410  0.1198E+00  0.2985E+02
  25.420  0.1252E+00  0.2985E+02
  25.430  0.1298E+00  0.2986E+02
  25.440  0.1333E+00  0.2986E+02
  25.450  0.1358E+00  0.2986E+02
  25.460  0.1372E+00  0.2986E+02
  25.470  0.1375E+00  0.2986E+02
  25.480  0.1366E+00  0.2986E+02
  25.490  0.1348E+00  0.2986E+02
  25.500  0.1319E+00  0.2987E+02
  25.510  0.1281E+00  0.2987E+02
  25.520  0.1236E+00  0.2987E+02
  25.530  0.1185E+00  0.2987E+02
  25.540  0.1128E+00  0.2987E+02
  25.550  0.1068E+00  0.2987E+02
  25.560  0.1005E+00  0.2987E+02
  25.570  0.9401E-01  0.2987E+02
  25.580  0.8750E-01  0.2987E+02
  25.590  0.8105E-01  0.2988E+02
  25.600  0.7473E-01  0.2988E+02
  25.610  0.6861E-01  0.2988E+02
  25.620  0.6275E-01  0.2988E+02
  25.630  0.5721E-01  0.2988E+02
  25.640  0.5201E-01  0.2988E+02
  25.650  0.4720E-01  0.2988E+02
  25.660  0.4280E-01  0.2988E+02
  25.670  0.3883E-01  0.2988E+02
  25.680  0.3531E-01  0.2988E+02
  25.690  0.3225E-01  0.2988E+02
  25.700  0.2965E-01  0.2988E+02
  25.710  0.2751E-01  0.2988E+02
  25.720  0.2583E-01  0.2988E+02
  25.730  0.2459E-01  0.2988E+02
  25.740  0.2378E-01  0.2988E+02
  25.750  0.2335E-01  0.2988E+02
  25.760  0.2329E-01  0.2988E+02
  25.770  0.2354E-01  0.2988E+02
  25.780  0.2406E-01  0.2988E+02
  25.790  0.2479E-01  0.2988E+02
  25.800  0.2568E-01  0.2988E+02
  25.810  0.2667E-01  0.2988E+02
  25.820  0.2770E-01  0.2988E+02
  25.830  0.2871E-01  0.2988E+02
  25.840  0.2967E-01  0.2988E+02
  25.850  0.3052E-01  0.2988E+02
  25.860  0.3122E-01  0.2988E+02
  25.870  0.3177E-01  0.2989E+02
  25.880  0.3212E-01  0.2989E+02
  25.890  0.3229E-01  0.2989E+02
  25.900  0.3228E-01  0.2989E+02
  25.910  0.3209E-01  0.2989E+02
  25.920  0.3174E-01  0.2989E+02
  25.930  0.3126E-01  0.2989E+02
  25.940  0.3067E-01  0.2989E+02
  25.950  0.3001E-01  0.2989E+02
  25.960  0.2929E-01  0.2989E+02
  25.970  0.2854E-01  0.2989E+02
  25.980  0.2777E-01  0.2989E+02
  25.990  0.2701E-01  0.2989E+02
  26.000  0.2626E-01  0.2989E+02
  26.010  0.2552E-01  0.2989E+02
  26.020  0.2479E-01  0.2989E+02
  26.030  0.2405E-01  0.2989E+02
  26.040  0.2331E-01  0.2989E+02
  26.050  0.2256E-01  0.2989E+02
  26.060  0.2176E-01  0.2989E+02
  26.070  0.2093E-01  0.2989E+02
  26.080  0.2005E-01  0.2989E+02
  26.090  0.1911E-01  0.2989E+02
  26.100  0.1812E-01  0.2989E+02
  26.110  0.1707E-01  0.2989E+02
  26.120  0.1597E-01  0.2989E+02
  26.130  0.1484E-01  0.2989E+02
  26.140  0.1368E-01  0.2989E+02
  26.150  0.1250E-01  0.2989E+02
  26.160  0.1134E-01  0.2989E+02
  26.170  0.1019E-01  0.2989E+02
  26.180  0.9075E-02  0.2989E+02
  26.190  0.8009E-02  0.2989E+02
  26.200  0.7003E-02  0.2989E+02
  26.210  0.6065E-02  0.2989E+02
  26.220  0.5203E-02  0.2989E+02
  26.230  0.4421E-02  0.2989E+02
  26.240  0.3720E-02  0.2989E+02
  26.250  0.3100E-02  0.2989E+02
  26.260  0.2558E-02  0.2989E+02
  26.270  0.2090E-02  0.2989E+02
  26.280  0.1691E-02  0.2989E+02
  26.290  0.1354E-02  0.2989E+02
  26.300  0.1074E-02  0.2989E+02
  26.310  0.8439E-03  0.2989E+02
  26.320  0.6563E-03  0.2989E+02
  26.330  0.5053E-03  0.2989E+02
  26.340  0.3853E-03  0.2989E+02
  26.350  0.2909E-03  0.2989E+02
  26.360  0.2174E-03  0.2989E+02
  26.370  0.1609E-03  0.2989E+02
  26.380  0.1179E-03  0.2989E+02
  26.390  0.8558E-04  0.2989E+02
  26.400  0.6148E-04  0.2989E+02
  26.410  0.4374E-04  0.2989E+02
  26.420  0.3081E-04  0.2989E+02
  26.430  0.2149E-04  0.2989E+02
  26.440  0.1484E-04  0.2989E+02
  26.450  0.1014E-04  0.2989E+02
  26.460  0.6866E-05  0.2989E+02
  26.470  0.4602E-05  0.2989E+02
  26.480  0.3054E-05  0.2989E+02
  26.490  0.2006E-05  0.2989E+02
  26.500  0.1305E-05  0.2989E+02
  26.510  0.8404E-06  0.2989E+02
  26.520  0.5358E-06  0.2989E+02
  26.530  0.3382E-06  0.2989E+02
  26.540  0.2113E-06  0.2989E+02
  26.550  0.1307E-06  0.2989E+02
  26.560  0.8005E-07  0.2989E+02
  26.570  0.4853E-07  0.2989E+02
  26.580  0.2912E-07  0.2989E+02
  26.590  0.1730E-07  0.2989E+02
  26.600  0.1017E-07  0.2989E+02
  26.610  0.5922E-08  0.2989E+02
  26.620  0.3412E-08  0.2989E+02
  26.630  0.1946E-08  0.2989E+02
  26.640  0.1098E-08  0.2989E+02
  26.650  0.6137E-09  0.2989E+02
  26.660  0.3394E-09  0.2989E+02
  26.670  0.1858E-09  0.2989E+02
  26.680  0.1006E-09  0.2989E+02
  26.690  0.5395E-10  0.2989E+02
  26.700  0.2862E-10  0.2989E+02
  26.710  0.1503E-10  0.2989E+02
  26.720  0.7811E-11  0.2989E+02
  26.730  0.4017E-11  0.2989E+02
  26.740  0.2044E-11  0.2989E+02
  26.750  0.1030E-11  0.2989E+02
  26.760  0.5132E-12  0.2989E+02
  26.770  0.2531E-12  0.2989E+02
  26.780  0.1235E-12  0.2989E+02
  26.790  0.5966E-13  0.2989E+02
  26.800  0.2851E-13  0.2989E+02
  26.810  0.1348E-13  0.2989E+02
  26.820  0.6308E-14  0.2989E+02
  26.830  0.2921E-14  0.2989E+02
  26.840  0.1338E-14  0.2989E+02
  26.850  0.6065E-15  0.2989E+02
  26.860  0.2720E-15  0.2989E+02
  26.870  0.1207E-15  0.2989E+02
  26.880  0.5301E-16  0.2989E+02
  26.890  0.2303E-16  0.2989E+02
  26.900  0.9900E-17  0.2989E+02
  26.910  0.4210E-17  0.2989E+02
  26.920  0.1772E-17  0.2989E+02
  26.930  0.7376E-18  0.2989E+02
  26.940  0.3038E-18  0.2989E+02
  26.950  0.1238E-18  0.2989E+02
  26.960  0.4992E-19  0.2989E+02
  26.970  0.1991E-19  0.2989E+02
  26.980  0.7859E-20  0.2989E+02
  26.990  0.3069E-20  0.2989E+02
  27.000  0.1186E-20  0.2989E+02
  27.010  0.4531E-21  0.2989E+02
  27.020  0.1713E-21  0.2989E+02
  27.030  0.6409E-22  0.2989E+02
  27.040  0.2372E-22  0.2989E+02
  27.050  0.8684E-23  0.2989E+02
  27.060  0.3146E-23  0.2989E+02
  27.070  0.1127E-23  0.2989E+02
  27.080  0.3996E-24  0.2989E+02
  27.090  0.1402E-24  0.2989E+02
  27.100  0.4864E-25  0.2989E+02
  27.110  0.1670E-25  0.2989E+02
  27.120  0.5670E-26  0.2989E+02
  27.130  0.1905E-26  0.2989E+02
  27.140  0.6331E-27  0.2989E+02
  27.150  0.2082E-27  0.2989E+02
  27.160  0.6772E-28  0.2989E+02
  27.170  0.2179E-28  0.2989E+02
  27.180  0.6938E-29  0.2989E+02
  27.190  0.2185E-29  0.2989E+02
  27.200  0.6809E-30  0.2989E+02
  27.210  0.2099E-30  0.2989E+02
  27.220  0.6400E-31  0.2989E+02
  27.230  0.1931E-31  0.2989E+02
  27.240  0.5761E-32  0.2989E+02
  27.250  0.1701E-32  0.2989E+02
  27.260  0.4968E-33  0.2989E+02
  27.270  0.1435E-33  0.2989E+02
  27.280  0.4102E-34  0.2989E+02
  27.290  0.1160E-34  0.2989E+02
  27.300  0.3245E-35  0.2989E+02
  27.310  0.8980E-36  0.2989E+02
  27.320  0.2458E-36  0.2989E+02
  27.330  0.6657E-37  0.2989E+02
  27.340  0.1784E-37  0.2989E+02
  27.350  0.4727E-38  0.2989E+02
  27.360  0.1239E-38  0.2989E+02
  27.370  0.3215E-39  0.2989E+02
  27.380  0.8249E-40  0.2989E+02
  27.390  0.2094E-40  0.2989E+02
  27.400  0.5258E-41  0.2989E+02
  27.410  0.1306E-41  0.2989E+02
  27.420  0.3210E-42  0.2989E+02
  27.430  0.7804E-43  0.2989E+02
  27.440  0.1877E-43  0.2989E+02
  27.450  0.4465E-44  0.2989E+02
  27.460  0.1051E-44  0.2989E+02
  27.470  0.2447E-45  0.2989E+02
  27.480  0.5636E-46  0.2989E+02
  27.490  0.1284E-46  0.2989E+02
  27.500  0.2895E-47  0.2989E+02
  27.510  0.6456E-48  0.2989E+02
  27.520  0.1424E-48  0.2989E+02
  27.530  0.3108E-49  0.2989E+02
  27.540  0.6709E-50  0.2989E+02
  27.550  0.1433E-50  0.2989E+02
  27.560  0.3027E-51  0.2989E+02
  27.570  0.6326E-52  0.2989E+02
  27.580  0.1308E-52  0.2989E+02
  27.590  0.2675E-53  0.2989E+02
  27.600  0.5413E-54  0.2989E+02
  27.610  0.1083E-54  0.2989E+02
  27.620  0.2145E-55  0.2989E+02
  27.630  0.4203E-56  0.2989E+02
  27.640  0.8144E-57  0.2989E+02
  27.650  0.1561E-57  0.2989E+02
  27.660  0.2961E-58  0.2989E+02
  27.670  0.5554E-59  0.2989E+02
  27.680  0.1031E-59  0.2989E+02
  27.690  0.1892E-60  0.2989E+02
  27.700  0.3437E-61  0.2989E+02
  27.710  0.6175E-62  0.2989E+02
  27.720  0.1097E-62  0.2989E+02
  27.730  0.1930E-63  0.2989E+02
  27.740  0.3356E-64  0.2989E+02
  27.750  0.5775E-65  0.2989E+02
  27.760  0.9831E-66  0.2989E+02
  27.770  0.1655E-66  0.2989E+02
  27.780  0.2758E-67  0.2989E+02
  27.790  0.4544E-68  0.2989E+02
  27.800  0.7408E-69  0.2989E+02
  27.810  0.1195E-69  0.2989E+02
  27.820  0.1906E-70  0.2989E+02
  27.830  0.3008E-71  0.2989E+02
  27.840  0.4696E-72  0.2989E+02
  27.850  0.7254E-73  0.2989E+02
  27.860  0.1108E-73  0.2989E+02
  27.870  0.1675E-74  0.2989E+02
  27.880  0.2505E-75  0.2989E+02
  27.890  0.3705E-76  0.2989E+02
  27.900  0.5421E-77  0.2989E+02
  27.910  0.7847E-78  0.2989E+02
  27.920  0.1124E-78  0.2989E+02
  27.930  0.1592E-79  0.2989E+02
  27.940  0.2231E-80  0.2989E+02
  27.950  0.3094E-81  0.2989E+02
  27.960  0.4259E-82  0.2989E+02
  27.970  0.5926E-83  0.2989E+02
  27.980  0.9444E-84  0.2989E+02
  27.990  0.2747E-84  0.2989E+02
  28.000  0.1856E-84  0.2989E+02
  28.010  0.1739E-84  0.2989E+02
  28.020  0.1724E-84  0.2989E+02
  28.030  0.1722E-84  0.2989E+02
  28.040  0.1722E-84  0.2989E+02
  28.050  0.1722E-84  0.2989E+02
  28.060  0.1722E-84  0.2989E+02
  28.070  0.1722E-84  0.2989E+02
  28.080  0.1722E-84  0.2989E+02
  28.090  0.1722E-84  0.2989E+02
  28.100  0.1722E-84  0.2989E+02
  28.110  0.1722E-84  0.2989E+02
  28.120  0.1722E-84  0.2989E+02
  28.130  0.1722E-84  0.2989E+02
  28.140  0.1722E-84  0.2989E+02
  28.150  0.1722E-84  0.2989E+02
  28.160  0.1722E-84  0.2989E+02
  28.170  0.1722E-84  0.2989E+02
  28.180  0.1722E-84  0.2989E+02
  28.190  0.1722E-84  0.2989E+02
  28.200  0.1722E-84  0.2989E+02
  28.210  0.1722E-84  0.2989E+02
  28.220  0.1722E-84  0.2989E+02
  28.230  0.1722E-84  0.2989E+02
  28.240  0.1722E-84  0.2989E+02
  28.250  0.1722E-84  0.2989E+02
  28.260  0.1722E-84  0.2989E+02
  28.270  0.1722E-84  0.2989E+02
  28.280  0.1722E-84  0.2989E+02
  28.290  0.1722E-84  0.2989E+02
  28.300  0.1722E-84  0.2989E+02
  28.310  0.1722E-84  0.2989E+02
  28.320  0.1722E-84  0.2989E+02
  28.330  0.1722E-84  0.2989E+02
  28.340  0.1722E-84  0.2989E+02
  28.350  0.1722E-84  0.2989E+02
  28.360  0.1722E-84  0.2989E+02
  28.370  0.1722E-84  0.2989E+02
  28.380  0.1722E-84  0.2989E+02
  28.390  0.1722E-84  0.2989E+02
  28.400  0.1722E-84  0.2989E+02
  28.410  0.1722E-84  0.2989E+02
  28.420  0.1722E-84  0.2989E+02
  28.430  0.1722E-84  0.2989E+02
  28.440  0.1722E-84  0.2989E+02
  28.450  0.1722E-84  0.2989E+02
  28.460  0.1722E-84  0.2989E+02
  28.470  0.1722E-84  0.2989E+02
  28.480  0.1722E-84  0.2989E+02
  28.490  0.1722E-84  0.2989E+02
  28.500  0.1722E-84  0.2989E+02
  28.510  0.1722E-84  0.2989E+02
  28.520  0.1722E-84  0.2989E+02
  28.530  0.1722E-84  0.2989E+02
  28.540  0.1722E-84  0.2989E+02
  28.550  0.1722E-84  0.2989E+02
  28.560  0.1722E-84  0.2989E+02
  28.570  0.1722E-84  0.2989E+02
  28.580  0.1722E-84  0.2989E+02
  28.590  0.1722E-84  0.2989E+02
  28.600  0.1722E-84  0.2989E+02
  28.610  0.1722E-84  0.2989E+02
  28.620  0.1722E-84  0.2989E+02
  28.630  0.1722E-84  0.2989E+02
  28.640  0.1722E-84  0.2989E+02
  28.650  0.1722E-84  0.2989E+02
  28.660  0.1722E-84  0.2989E+02
  28.670  0.1722E-84  0.2989E+02
  28.680  0.1722E-84  0.2989E+02
  28.690  0.1722E-84  0.2989E+02
  28.700  0.1722E-84  0.2989E+02
  28.710  0.1722E-84  0.2989E+02
  28.720  0.1722E-84  0.2989E+02
  28.730  0.1722E-84  0.2989E+02
  28.740  0.1722E-84  0.2989E+02
  28.750  0.1722E-84  0.2989E+02
  28.760  0.1722E-84  0.2989E+02
  28.770  0.1722E-84  0.2989E+02
  28.780  0.1722E-84  0.2989E+02
  28.790  0.1722E-84  0.2989E+02
  28.800  0.1722E-84  0.2989E+02
  28.810  0.1722E-84  0.2989E+02
  28.820  0.1722E-84  0.2989E+02
  28.830  0.1722E-84  0.2989E+02
  28.840  0.1722E-84  0.2989E+02
  28.850  0.1722E-84  0.2989E+02
  28.860  0.1722E-84  0.2989E+02
  28.870  0.1722E-84  0.2989E+02
  28.880  0.1722E-84  0.2989E+02
  28.890  0.1722E-84  0.2989E+02
  28.900  0.1722E-84  0.2989E+02
  28.910  0.1722E-84  0.2989E+02
  28.920  0.1722E-84  0.2989E+02
  28.930  0.1722E-84  0.2989E+02
  28.940  0.1722E-84  0.2989E+02
  28.950  0.1722E-84  0.2989E+02
  28.960  0.1722E-84  0.2989E+02
  28.970  0.1722E-84  0.2989E+02
  28.980  0.1722E-84  0.2989E+02
  28.990  0.1722E-84  0.2989E+02
  29.000  0.1722E-84  0.2989E+02
  29.010  0.1722E-84  0.2989E+02
  29.020  0.1722E-84  0.2989E+02
  29.030  0.1722E-84  0.2989E+02
  29.040  0.1722E-84  0.2989E+02
  29.050  0.1722E-84  0.2989E+02
  29.060  0.1722E-84  0.2989E+02
  29.070  0.1722E-84  0.2989E+02
  29.080  0.1722E-84  0.2989E+02
  29.090  0.1722E-84  0.2989E+02
  29.100  0.1722E-84  0.2989E+02
  29.110  0.1722E-84  0.2989E+02
  29.120  0.1722E-84  0.2989E+02
  29.130  0.1722E-84  0.2989E+02
  29.140  0.1722E-84  0.2989E+02
  29.150  0.1722E-84  0.2989E+02
  29.160  0.1722E-84  0.2989E+02
  29.170  0.1722E-84  0.2989E+02
  29.180  0.1722E-84  0.2989E+02
  29.190  0.1722E-84  0.2989E+02
  29.200  0.1722E-84  0.2989E+02
  29.210  0.1722E-84  0.2989E+02
  29.220  0.1722E-84  0.2989E+02
  29.230  0.1722E-84  0.2989E+02
  29.240  0.1722E-84  0.2989E+02
  29.250  0.1722E-84  0.2989E+02
  29.260  0.1722E-84  0.2989E+02
  29.270  0.1722E-84  0.2989E+02
  29.280  0.1722E-84  0.2989E+02
  29.290  0.1722E-84  0.2989E+02
  29.300  0.1722E-84  0.2989E+02
  29.310  0.1722E-84  0.2989E+02
  29.320  0.1722E-84  0.2989E+02
  29.330  0.1722E-84  0.2989E+02
  29.340  0.1722E-84  0.2989E+02
  29.350  0.1722E-84  0.2989E+02
  29.360  0.1722E-84  0.2989E+02
  29.370  0.1722E-84  0.2989E+02
  29.380  0.1722E-84  0.2989E+02
  29.390  0.1722E-84  0.2989E+02
  29.400  0.1722E-84  0.2989E+02
  29.410  0.1722E-84  0.2989E+02
  29.420  0.1722E-84  0.2989E+02
  29.430  0.1722E-84  0.2989E+02
  29.440  0.1722E-84  0.2989E+02
  29.450  0.1722E-84  0.2989E+02
  29.460  0.1722E-84  0.2989E+02
  29.470  0.1722E-84  0.2989E+02
  29.480  0.1722E-84  0.2989E+02
  29.490  0.1722E-84  0.2989E+02
  29.500  0.1722E-84  0.2989E+02
  29.510  0.1722E-84  0.2989E+02
  29.520  0.1722E-84  0.2989E+02
  29.530  0.1722E-84  0.2989E+02
  29.540  0.1722E-84  0.2989E+02
  29.550  0.1722E-84  0.2989E+02
  29.560  0.1722E-84  0.2989E+02
  29.570  0.1722E-84  0.2989E+02
  29.580  0.1722E-84  0.2989E+02
  29.590  0.1722E-84  0.2989E+02
  29.600  0.1722E-84  0.2989E+02
  29.610  0.1722E-84  0.2989E+02
  29.620  0.1722E-84  0.2989E+02
  29.630  0.1722E-84  0.2989E+02
  29.640  0.1722E-84  0.2989E+02
  29.650  0.1722E-84  0.2989E+02
  29.660  0.1722E-84  0.2989E+02
  29.670  0.1722E-84  0.2989E+02
  29.680  0.1722E-84  0.2989E+02
  29.690  0.1722E-84  0.2989E+02
  29.700  0.1722E-84  0.2989E+02
  29.710  0.1722E-84  0.2989E+02
  29.720  0.1722E-84  0.2989E+02
  29.730  0.1722E-84  0.2989E+02
  29.740  0.1722E-84  0.2989E+02
  29.750  0.1722E-84  0.2989E+02
  29.760  0.1722E-84  0.2989E+02
  29.770  0.1722E-84  0.2989E+02
  29.780  0.1722E-84  0.2989E+02
  29.790  0.1722E-84  0.2989E+02
  29.800  0.1722E-84  0.2989E+02
  29.810  0.1722E-84  0.2989E+02
  29.820  0.1722E-84  0.2989E+02
  29.830  0.1722E-84  0.2989E+02
  29.840  0.1722E-84  0.2989E+02
  29.850  0.1722E-84  0.2989E+02
  29.860  0.1722E-84  0.2989E+02
  29.870  0.1722E-84  0.2989E+02
  29.880  0.1722E-84  0.2989E+02
  29.890  0.1722E-84  0.2989E+02
  29.900  0.1722E-84  0.2989E+02
  29.910  0.1722E-84  0.2989E+02
  29.920  0.1722E-84  0.2989E+02
  29.930  0.1722E-84  0.2989E+02
  29.940  0.1722E-84  0.2989E+02
  29.950  0.1722E-84  0.2989E+02
  29.960  0.1722E-84  0.2989E+02
  29.970  0.1722E-84  0.2989E+02
  29.980  0.1722E-84  0.2989E+02
  29.990  0.1722E-84  0.2989E+02
  30.000  0.1722E-84  0.2989E+02
